%OpenBCI Raw EEG Data
%Number of channels = 8
%Sample Rate = 250 Hz
%Board = OpenBCI_GUI$BoardCytonSerial
Sample Index, EXG Channel 0, EXG Channel 1, EXG Channel 2, EXG Channel 3, EXG Channel 4, EXG Channel 5, EXG Channel 6, EXG Channel 7, Accel Channel 0, Accel Channel 1, Accel Channel 2, Other, Other, Other, Other, Other, Other, Other, Analog Channel 0, Analog Channel 1, Analog Channel 2, Timestamp, Timestamp (Formatted)
66.0, 496828.828125, 389737.875, -1764975.1875, -1312290.1875, -1847941.3125, -1728039.0, -1700300.25, -1834017.9375, 0.0, 0.0, 0.0, 192.0, 0.0, 0.0, 0.0, 0.0, 0.0, 0.0, 0.0, 0.0, 0.0, 1.6077116809508345E9, 2020-12-11 13:34:40.950
67.0, 494751.1875, 387507.3515625, -1766945.0625, -1314138.1875, -1850046.9375, -1729956.375, -1702091.8125, -1834562.4375, 0.0, 0.0, 0.0, 192.0, 0.0, 0.0, 0.0, 0.0, 0.0, 0.0, 0.0, 0.0, 0.0, 1.6077116809508367E9, 2020-12-11 13:34:40.950
68.0, 491814.703125, 388879.5703125, -1767699.75, -1313445.65625, -1849682.0625, -1728578.25, -1702943.8125, -1839232.6875, 0.0, 0.0, 0.0, 192.0, 0.0, 0.0, 0.0, 0.0, 0.0, 0.0, 0.0, 0.0, 0.0, 1.6077116809508383E9, 2020-12-11 13:34:40.950
69.0, 493282.96875, 391069.3359375, -1765951.5, -1311603.0, -1847620.5, -1726592.25, -1701291.0, -1839537.375, 0.0, 0.0, 0.0, 192.0, 0.0, 0.0, 0.0, 0.0, 0.0, 0.0, 0.0, 0.0, 0.0, 1.6077116809508405E9, 2020-12-11 13:34:40.950
70.0, 496559.53125, 390023.2734375, -1764946.875, -1311856.21875, -1847675.8125, -1727644.3125, -1700202.0, -1834809.75, 0.0, 0.0, 0.0, 192.0, 0.0, 0.0, 0.0, 0.0, 0.0, 0.0, 0.0, 0.0, 0.0, 1.6077116809508424E9, 2020-12-11 13:34:40.950
71.0, 495612.703125, 387796.5, -1766391.9375, -1313577.65625, -1849545.75, -1729666.6875, -1701477.1875, -1834079.0625, 0.0, 0.0, 0.0, 192.0, 0.0, 0.0, 0.0, 0.0, 0.0, 0.0, 0.0, 0.0, 0.0, 1.6077116809508443E9, 2020-12-11 13:34:40.950
72.0, 492390.84375, 388809.84375, -1767434.8125, -1313265.9375, -1849476.5625, -1728633.375, -1702346.625, -1838442.5625, 0.5520000457763672, 0.800000011920929, 0.08000000566244125, 192.0, 17.0, 64.0, 25.0, 0.0, 2.0, 128.0, 0.0, 0.0, 0.0, 1.607711680950846E9, 2020-12-11 13:34:40.950
73.0, 493005.609375, 391125.65625, -1766024.4375, -1311393.28125, -1847493.9375, -1726482.75, -1701222.9375, -1840043.25, 0.5520000457763672, 0.800000011920929, 0.08000000566244125, 192.0, 0.0, 0.0, 0.0, 0.0, 0.0, 0.0, 0.0, 0.0, 0.0, 1.607711680950848E9, 2020-12-11 13:34:40.950
74.0, 496456.03125, 390518.390625, -1764662.4375, -1311365.90625, -1847164.5, -1727154.0, -1699910.25, -1835499.5625, 0.5520000457763672, 0.800000011920929, 0.08000000566244125, 192.0, 0.0, 0.0, 0.0, 0.0, 0.0, 0.0, 0.0, 0.0, 0.0, 1.6077116809508498E9, 2020-12-11 13:34:40.950
75.0, 496189.40625, 387949.921875, -1766083.5, -1313317.5, -1849265.8125, -1729551.1875, -1701113.4375, -1833744.9375, 0.5520000457763672, 0.800000011920929, 0.08000000566244125, 192.0, 0.0, 0.0, 0.0, 0.0, 0.0, 0.0, 0.0, 0.0, 0.0, 1.6077116809508517E9, 2020-12-11 13:34:40.950
76.0, 492905.859375, 388256.765625, -1767490.125, -1313515.40625, -1849753.875, -1729130.625, -1702512.0, -1838038.125, 0.5520000457763672, 0.800000011920929, 0.08000000566244125, 192.0, 0.0, 0.0, 0.0, 0.0, 0.0, 0.0, 0.0, 0.0, 0.0, 1.6077116809508536E9, 2020-12-11 13:34:40.950
77.0, 492737.390625, 390823.640625, -1766393.625, -1311592.78125, -1847769.5625, -1726704.9375, -1701548.4375, -1840493.8125, 0.5520000457763672, 0.800000011920929, 0.08000000566244125, 192.0, 0.0, 0.0, 0.0, 0.0, 0.0, 0.0, 0.0, 0.0, 0.0, 1.6077116809508555E9, 2020-12-11 13:34:40.950
78.0, 495974.8125, 390593.5078125, -1764961.3125, -1311167.90625, -1847168.8125, -1726928.625, -1700178.9375, -1836430.875, 0.5520000457763672, 0.800000011920929, 0.08000000566244125, 192.0, 0.0, 0.0, 0.0, 0.0, 0.0, 0.0, 0.0, 0.0, 0.0, 1.6077116809508572E9, 2020-12-11 13:34:40.950
79.0, 496710.796875, 388248.1875, -1765663.5, -1312719.84375, -1848783.5625, -1729032.0, -1700830.125, -1833483.1875, 0.5520000457763672, 0.800000011920929, 0.08000000566244125, 192.0, 0.0, 0.0, 0.0, 0.0, 0.0, 0.0, 0.0, 0.0, 0.0, 1.607711680950859E9, 2020-12-11 13:34:40.950
80.0, 493341.421875, 387719.25, -1767485.25, -1313527.21875, -1849884.75, -1729382.25, -1702469.0625, -1837127.8125, 0.5520000457763672, 0.800000011920929, 0.08000000566244125, 192.0, 0.0, 0.0, 0.0, 0.0, 0.0, 0.0, 0.0, 0.0, 0.0, 1.6077116809508607E9, 2020-12-11 13:34:40.950
81.0, 492379.03125, 390338.15625, -1766749.3125, -1311708.65625, -1848066.75, -1726948.5, -1701800.625, -1840470.75, 0.5520000457763672, 0.800000011920929, 0.08000000566244125, 192.0, 0.0, 0.0, 0.0, 0.0, 0.0, 0.0, 0.0, 0.0, 0.0, 1.607711680950863E9, 2020-12-11 13:34:40.950
82.0, 495772.03125, 391137.4453125, -1764748.3125, -1310488.3125, -1846639.875, -1726218.9375, -1699820.0625, -1836995.8125, 0.5560000538825989, 0.796000063419342, 0.0860000029206276, 192.0, 17.0, 96.0, 24.0, 224.0, 2.0, 176.0, 0.0, 0.0, 0.0, 1.6077116809508646E9, 2020-12-11 13:34:40.950
83.0, 497376.0, 389086.1015625, -1764930.75, -1311781.59375, -1847976.1875, -1728200.4375, -1700004.0, -1833142.5, 0.5560000538825989, 0.796000063419342, 0.0860000029206276, 192.0, 0.0, 0.0, 0.0, 0.0, 0.0, 0.0, 0.0, 0.0, 0.0, 1.6077116809508665E9, 2020-12-11 13:34:40.950
84.0, 494331.703125, 387908.6015625, -1766921.4375, -1313132.90625, -1849606.875, -1729243.875, -1701905.25, -1835871.9375, 0.5560000538825989, 0.796000063419342, 0.0860000029206276, 192.0, 0.0, 0.0, 0.0, 0.0, 0.0, 0.0, 0.0, 0.0, 0.0, 1.6077116809508684E9, 2020-12-11 13:34:40.950
85.0, 492423.046875, 390011.4609375, -1766831.25, -1311816.0, -1848369.9375, -1727211.9375, -1701848.8125, -1840084.125, 0.5560000538825989, 0.796000063419342, 0.0860000029206276, 192.0, 0.0, 0.0, 0.0, 0.0, 0.0, 0.0, 0.0, 0.0, 0.0, 1.6077116809508708E9, 2020-12-11 13:34:40.950
86.0, 495021.5625, 391154.0859375, -1765041.75, -1310603.0625, -1846868.4375, -1726250.0625, -1700232.5625, -1838053.6875, 0.5560000538825989, 0.796000063419342, 0.0860000029206276, 192.0, 0.0, 0.0, 0.0, 0.0, 0.0, 0.0, 0.0, 0.0, 0.0, 1.607711680950873E9, 2020-12-11 13:34:40.950
87.0, 496991.90625, 388911.2109375, -1765089.9375, -1311859.96875, -1848112.5, -1728293.25, -1700262.0, -1833878.4375, 0.5560000538825989, 0.796000063419342, 0.0860000029206276, 192.0, 0.0, 0.0, 0.0, 0.0, 0.0, 0.0, 0.0, 0.0, 0.0, 1.6077116809508748E9, 2020-12-11 13:34:40.950
88.0, 494024.296875, 386837.8828125, -1767465.375, -1313791.125, -1850373.5625, -1730129.625, -1702517.25, -1835893.3125, 0.5560000538825989, 0.796000063419342, 0.0860000029206276, 192.0, 0.0, 0.0, 0.0, 0.0, 0.0, 0.0, 0.0, 0.0, 0.0, 1.6077116809508767E9, 2020-12-11 13:34:40.950
89.0, 492141.421875, 389117.7421875, -1767234.1875, -1312278.375, -1848948.75, -1727790.1875, -1702407.375, -1840090.5, 0.5560000538825989, 0.796000063419342, 0.0860000029206276, 192.0, 0.0, 0.0, 0.0, 0.0, 0.0, 0.0, 0.0, 0.0, 0.0, 1.6077116809508803E9, 2020-12-11 13:34:40.950
90.0, 494242.125, 390788.765625, -1765318.5, -1310718.375, -1847024.0625, -1726180.3125, -1700675.0625, -1839043.875, 0.5560000538825989, 0.796000063419342, 0.0860000029206276, 192.0, 0.0, 0.0, 0.0, 0.0, 0.0, 0.0, 0.0, 0.0, 0.0, 1.6077116809508824E9, 2020-12-11 13:34:40.950
91.0, 497180.203125, 389544.75, -1764519.1875, -1311243.5625, -1847430.0, -1727422.6875, -1699936.5, -1834147.875, 0.5560000538825989, 0.796000063419342, 0.0860000029206276, 192.0, 0.0, 0.0, 0.0, 0.0, 0.0, 0.0, 0.0, 0.0, 0.0, 1.607711680950884E9, 2020-12-11 13:34:40.950
92.0, 495465.75, 387509.5078125, -1766253.0, -1313041.78125, -1849430.4375, -1729342.125, -1701474.0, -1834320.5625, 0.5540000200271606, 0.8020000457763672, 0.07800000160932541, 192.0, 17.0, 80.0, 25.0, 16.0, 2.0, 112.0, 0.0, 0.0, 0.0, 1.607711680950886E9, 2020-12-11 13:34:40.950
93.0, 492017.484375, 388090.9921875, -1767560.25, -1312954.3125, -1849544.8125, -1728570.75, -1702593.9375, -1839661.3125, 0.5540000200271606, 0.8020000457763672, 0.07800000160932541, 192.0, 0.0, 0.0, 0.0, 0.0, 0.0, 0.0, 0.0, 0.0, 0.0, 1.607711680950888E9, 2020-12-11 13:34:40.950
94.0, 493616.625, 390533.953125, -1765628.0625, -1310810.15625, -1847267.625, -1726302.5625, -1700778.75, -1839973.5, 0.5540000200271606, 0.8020000457763672, 0.07800000160932541, 192.0, 0.0, 0.0, 0.0, 0.0, 0.0, 0.0, 0.0, 0.0, 0.0, 1.6077116809508896E9, 2020-12-11 13:34:40.950
95.0, 496616.953125, 389311.40625, -1764760.6875, -1311238.78125, -1847565.1875, -1727570.25, -1699932.75, -1835307.5625, 0.5540000200271606, 0.8020000457763672, 0.07800000160932541, 192.0, 0.0, 0.0, 0.0, 0.0, 0.0, 0.0, 0.0, 0.0, 0.0, 1.6077116809508915E9, 2020-12-11 13:34:40.950
96.0, 495855.1875, 387114.6796875, -1766179.5, -1313072.8125, -1849488.375, -1729631.25, -1701344.625, -1834276.5, 0.5540000200271606, 0.8020000457763672, 0.07800000160932541, 192.0, 0.0, 0.0, 0.0, 0.0, 0.0, 0.0, 0.0, 0.0, 0.0, 1.6077116809508932E9, 2020-12-11 13:34:40.950
97.0, 492491.71875, 387613.5703125, -1767571.6875, -1313290.125, -1849770.0, -1729078.6875, -1702620.375, -1839106.125, 0.5540000200271606, 0.8020000457763672, 0.07800000160932541, 192.0, 0.0, 0.0, 0.0, 0.0, 0.0, 0.0, 0.0, 0.0, 0.0, 1.6077116809508953E9, 2020-12-11 13:34:40.950
98.0, 493054.453125, 390158.4375, -1766112.0, -1311292.40625, -1847611.3125, -1726751.0625, -1701203.0625, -1840637.0625, 0.5540000200271606, 0.8020000457763672, 0.07800000160932541, 192.0, 0.0, 0.0, 0.0, 0.0, 0.0, 0.0, 0.0, 0.0, 0.0, 1.607711680950897E9, 2020-12-11 13:34:40.950
99.0, 496506.421875, 389686.3828125, -1764678.0, -1310973.1875, -1847169.9375, -1727243.0625, -1699931.625, -1835931.0, 0.5540000200271606, 0.8020000457763672, 0.07800000160932541, 192.0, 0.0, 0.0, 0.0, 0.0, 0.0, 0.0, 0.0, 0.0, 0.0, 1.607711680950899E9, 2020-12-11 13:34:40.950
100.0, 496351.40625, 387139.8984375, -1765844.25, -1312825.59375, -1849113.375, -1729527.1875, -1700992.6875, -1833692.4375, 0.5540000200271606, 0.8020000457763672, 0.07800000160932541, 192.0, 0.0, 0.0, 0.0, 0.0, 0.0, 0.0, 0.0, 0.0, 0.0, 1.6077116809509008E9, 2020-12-11 13:34:40.950
101.0, 492999.1875, 387434.390625, -1767320.625, -1313159.71875, -1849671.9375, -1729239.0, -1702275.375, -1837709.25, 0.5540000200271606, 0.8020000457763672, 0.07800000160932541, 192.0, 0.0, 0.0, 0.0, 0.0, 0.0, 0.0, 0.0, 0.0, 0.0, 1.6077116809509025E9, 2020-12-11 13:34:40.950
102.0, 492533.015625, 389941.1953125, -1766382.75, -1311333.1875, -1847869.875, -1726969.3125, -1701484.125, -1840426.875, 0.5540000200271606, 0.8020000457763672, 0.07800000160932541, 192.0, 0.0, 0.0, 0.0, 0.0, 0.0, 0.0, 0.0, 0.0, 0.0, 1.6077116809509044E9, 2020-12-11 13:34:40.950
103.0, 496064.390625, 390251.25, -1764555.75, -1310495.8125, -1846921.5, -1726835.8125, -1699937.0625, -1836306.375, 0.5560000538825989, 0.8040000200271606, 0.07600000500679016, 192.0, 17.0, 96.0, 25.0, 32.0, 2.0, 96.0, 0.0, 0.0, 0.0, 1.6077116809509063E9, 2020-12-11 13:34:40.950
104.0, 496715.109375, 387748.7578125, -1765398.9375, -1312179.65625, -1848715.3125, -1729160.8125, -1700637.5625, -1833070.6875, 0.5560000538825989, 0.8040000200271606, 0.07600000500679016, 192.0, 0.0, 0.0, 0.0, 0.0, 0.0, 0.0, 0.0, 0.0, 0.0, 1.607711680950908E9, 2020-12-11 13:34:40.950
105.0, 493724.4375, 387611.953125, -1766955.1875, -1312722.5625, -1849613.4375, -1729296.5625, -1702083.375, -1836150.375, 0.5560000538825989, 0.8040000200271606, 0.07600000500679016, 192.0, 0.0, 0.0, 0.0, 0.0, 0.0, 0.0, 0.0, 0.0, 0.0, 1.60771168095091E9, 2020-12-11 13:34:40.950
106.0, 492410.15625, 389896.125, -1766596.3125, -1311161.53125, -1848214.875, -1727271.375, -1701866.625, -1839694.5, 0.5560000538825989, 0.8040000200271606, 0.07600000500679016, 192.0, 0.0, 0.0, 0.0, 0.0, 0.0, 0.0, 0.0, 0.0, 0.0, 1.6077116809509115E9, 2020-12-11 13:34:40.950
107.0, 495790.828125, 390830.0625, -1764621.1875, -1309988.8125, -1846791.75, -1726607.25, -1700022.375, -1836352.5, 0.5560000538825989, 0.8040000200271606, 0.07600000500679016, 192.0, 0.0, 0.0, 0.0, 0.0, 0.0, 0.0, 0.0, 0.0, 0.0, 1.6077116809509137E9, 2020-12-11 13:34:40.950
108.0, 497205.421875, 388523.90625, -1765006.3125, -1311484.40625, -1848284.625, -1728846.9375, -1700303.4375, -1832364.1875, 0.5560000538825989, 0.8040000200271606, 0.07600000500679016, 192.0, 0.0, 0.0, 0.0, 0.0, 0.0, 0.0, 0.0, 0.0, 0.0, 1.6077116809509153E9, 2020-12-11 13:34:40.950
109.0, 493790.953125, 386997.7265625, -1767201.9375, -1313168.90625, -1850172.375, -1730280.75, -1702368.1875, -1834964.8125, 0.5560000538825989, 0.8040000200271606, 0.07600000500679016, 192.0, 0.0, 0.0, 0.0, 0.0, 0.0, 0.0, 0.0, 0.0, 0.0, 1.6077116809509172E9, 2020-12-11 13:34:40.950
110.0, 491676.328125, 389122.5703125, -1767214.875, -1312024.6875, -1849088.8125, -1728483.1875, -1702575.75, -1839240.75, 0.5560000538825989, 0.8040000200271606, 0.07600000500679016, 192.0, 0.0, 0.0, 0.0, 0.0, 0.0, 0.0, 0.0, 0.0, 0.0, 1.607711680950919E9, 2020-12-11 13:34:40.950
111.0, 494432.53125, 390754.4296875, -1765230.0, -1310592.375, -1847406.0, -1727294.4375, -1700778.75, -1837129.3125, 0.5560000538825989, 0.8040000200271606, 0.07600000500679016, 192.0, 0.0, 0.0, 0.0, 0.0, 0.0, 0.0, 0.0, 0.0, 0.0, 1.6077116809509208E9, 2020-12-11 13:34:40.950
112.0, 496921.125, 388950.9140625, -1764767.0625, -1311360.0, -1848130.125, -1728864.1875, -1700233.6875, -1832131.875, 0.5560000538825989, 0.8040000200271606, 0.07600000500679016, 192.0, 0.0, 0.0, 0.0, 0.0, 0.0, 0.0, 0.0, 0.0, 0.0, 1.6077116809509227E9, 2020-12-11 13:34:40.950
113.0, 494404.125, 387063.1875, -1766825.4375, -1313080.875, -1850128.3125, -1730558.625, -1702092.9375, -1833454.125, 0.5540000200271606, 0.8060000538825989, 0.0820000022649765, 192.0, 17.0, 80.0, 25.0, 48.0, 2.0, 144.0, 0.0, 0.0, 0.0, 1.6077116809509268E9, 2020-12-11 13:34:40.950
114.0, 491772.890625, 388780.875, -1767289.875, -1312296.65625, -1849377.9375, -1728959.0625, -1702553.25, -1837948.5, 0.5540000200271606, 0.8060000538825989, 0.0820000022649765, 192.0, 0.0, 0.0, 0.0, 0.0, 0.0, 0.0, 0.0, 0.0, 0.0, 1.6077116809509287E9, 2020-12-11 13:34:40.950
115.0, 493896.09375, 390928.2421875, -1765303.5, -1310421.1875, -1847268.0, -1727029.5, -1700718.5625, -1836989.25, 0.5540000200271606, 0.8060000538825989, 0.0820000022649765, 192.0, 0.0, 0.0, 0.0, 0.0, 0.0, 0.0, 0.0, 0.0, 0.0, 1.6077116809509308E9, 2020-12-11 13:34:40.950
116.0, 496805.765625, 389685.84375, -1764562.125, -1311035.4375, -1847714.4375, -1728425.25, -1699976.25, -1832056.6875, 0.5540000200271606, 0.8060000538825989, 0.0820000022649765, 192.0, 0.0, 0.0, 0.0, 0.0, 0.0, 0.0, 0.0, 0.0, 0.0, 1.6077116809509325E9, 2020-12-11 13:34:40.950
117.0, 495363.796875, 387798.6328125, -1766085.1875, -1312528.875, -1849479.375, -1730148.9375, -1701405.75, -1831994.4375, 0.5540000200271606, 0.8060000538825989, 0.0820000022649765, 192.0, 0.0, 0.0, 0.0, 0.0, 0.0, 0.0, 0.0, 0.0, 0.0, 1.6077116809509344E9, 2020-12-11 13:34:40.950
118.0, 492029.8125, 388692.3515625, -1767179.4375, -1312419.46875, -1849425.5625, -1729263.1875, -1702268.4375, -1836860.0625, 0.5540000200271606, 0.8060000538825989, 0.0820000022649765, 192.0, 0.0, 0.0, 0.0, 0.0, 0.0, 0.0, 0.0, 0.0, 0.0, 1.6077116809509363E9, 2020-12-11 13:34:40.950
119.0, 493284.046875, 391147.640625, -1765595.8125, -1310487.75, -1847393.625, -1727174.8125, -1700737.875, -1837399.125, 0.5540000200271606, 0.8060000538825989, 0.0820000022649765, 192.0, 0.0, 0.0, 0.0, 0.0, 0.0, 0.0, 0.0, 0.0, 0.0, 1.607711680950938E9, 2020-12-11 13:34:40.950
120.0, 496803.609375, 390515.71875, -1764329.25, -1310376.1875, -1847232.75, -1727883.9375, -1699621.5, -1832347.5, 0.5540000200271606, 0.8060000538825989, 0.0820000022649765, 192.0, 0.0, 0.0, 0.0, 0.0, 0.0, 0.0, 0.0, 0.0, 0.0, 1.60771168095094E9, 2020-12-11 13:34:40.950
121.0, 496375.546875, 388511.578125, -1765479.5625, -1311960.84375, -1848921.375, -1729716.5625, -1700691.75, -1831004.25, 0.5540000200271606, 0.8060000538825989, 0.0820000022649765, 192.0, 0.0, 0.0, 0.0, 0.0, 0.0, 0.0, 0.0, 0.0, 0.0, 1.6077116809509416E9, 2020-12-11 13:34:40.950
122.0, 492908.53125, 389001.8671875, -1766909.0625, -1312229.0625, -1849305.0, -1729298.625, -1702025.4375, -1835596.6875, 0.5540000200271606, 0.8060000538825989, 0.0820000022649765, 192.0, 0.0, 0.0, 0.0, 0.0, 0.0, 0.0, 0.0, 0.0, 0.0, 1.6077116809509437E9, 2020-12-11 13:34:40.950
123.0, 492990.609375, 391235.0859375, -1765901.625, -1310655.65625, -1847550.75, -1727287.5, -1701211.125, -1837562.25, 0.5540000200271606, 0.8040000200271606, 0.08000000566244125, 192.0, 17.0, 80.0, 25.0, 32.0, 2.0, 128.0, 0.0, 0.0, 0.0, 1.6077116809509451E9, 2020-12-11 13:34:40.950
124.0, 496511.25, 390849.9140625, -1764420.5625, -1310463.09375, -1847095.875, -1727718.75, -1699842.5625, -1833114.0, 0.5540000200271606, 0.8040000200271606, 0.08000000566244125, 192.0, 0.0, 0.0, 0.0, 0.0, 0.0, 0.0, 0.0, 0.0, 0.0, 1.6077116809509473E9, 2020-12-11 13:34:40.950
125.0, 496926.46875, 388737.421875, -1765189.3125, -1311928.125, -1848644.625, -1729633.3125, -1700453.0625, -1830594.9375, 0.5540000200271606, 0.8040000200271606, 0.08000000566244125, 192.0, 0.0, 0.0, 0.0, 0.0, 0.0, 0.0, 0.0, 0.0, 0.0, 1.607711680950949E9, 2020-12-11 13:34:40.950
126.0, 492948.234375, 388118.90625, -1767298.5, -1313017.03125, -1849939.5, -1730095.6875, -1702428.1875, -1835085.0, 0.5540000200271606, 0.8040000200271606, 0.08000000566244125, 192.0, 0.0, 0.0, 0.0, 0.0, 0.0, 0.0, 0.0, 0.0, 0.0, 1.6077116809509509E9, 2020-12-11 13:34:40.950
127.0, 492804.984375, 391015.1484375, -1766113.5, -1310946.9375, -1847830.3125, -1727524.6875, -1701400.875, -1837841.25, 0.5540000200271606, 0.8040000200271606, 0.08000000566244125, 192.0, 0.0, 0.0, 0.0, 0.0, 0.0, 0.0, 0.0, 0.0, 0.0, 1.6077116809509528E9, 2020-12-11 13:34:40.950
128.0, 496285.40625, 391306.4296875, -1764326.0625, -1310233.96875, -1846857.75, -1727401.6875, -1699805.625, -1833956.25, 0.5540000200271606, 0.8040000200271606, 0.08000000566244125, 192.0, 0.0, 0.0, 0.0, 0.0, 0.0, 0.0, 0.0, 0.0, 0.0, 1.6077116809509547E9, 2020-12-11 13:34:40.950
129.0, 497093.296875, 388690.1953125, -1765167.75, -1312049.8125, -1848710.625, -1729762.6875, -1700586.1875, -1831071.375, 0.5540000200271606, 0.8040000200271606, 0.08000000566244125, 192.0, 0.0, 0.0, 0.0, 0.0, 0.0, 0.0, 0.0, 0.0, 0.0, 1.6077116809509563E9, 2020-12-11 13:34:40.950
130.0, 493953.515625, 388233.1640625, -1766833.5, -1312759.59375, -1849737.9375, -1730087.25, -1701878.4375, -1834217.0625, 0.5540000200271606, 0.8040000200271606, 0.08000000566244125, 192.0, 0.0, 0.0, 0.0, 0.0, 0.0, 0.0, 0.0, 0.0, 0.0, 1.6077116809509585E9, 2020-12-11 13:34:40.950
131.0, 492404.25, 390207.796875, -1766575.875, -1311527.34375, -1848419.8125, -1728151.125, -1701744.1875, -1838012.25, 0.5540000200271606, 0.8040000200271606, 0.08000000566244125, 192.0, 0.0, 0.0, 0.0, 0.0, 0.0, 0.0, 0.0, 0.0, 0.0, 1.60771168095096E9, 2020-12-11 13:34:40.950
132.0, 495472.171875, 390872.4609375, -1764846.9375, -1310560.6875, -1847214.9375, -1727601.9375, -1700210.0625, -1835293.125, 0.5540000200271606, 0.8040000200271606, 0.08000000566244125, 192.0, 0.0, 0.0, 0.0, 0.0, 0.0, 0.0, 0.0, 0.0, 0.0, 1.607711680950962E9, 2020-12-11 13:34:40.950
133.0, 497058.984375, 388611.890625, -1765112.0625, -1311863.71875, -1848596.8125, -1729640.25, -1700304.9375, -1831526.8125, 0.5600000023841858, 0.800000011920929, 0.07400000095367432, 192.0, 17.0, 128.0, 25.0, 0.0, 2.0, 80.0, 0.0, 0.0, 0.0, 1.6077116809509637E9, 2020-12-11 13:34:40.950
134.0, 494344.59375, 387545.4375, -1766860.875, -1313064.28125, -1850041.5, -1730566.6875, -1701930.9375, -1833658.5, 0.5600000023841858, 0.800000011920929, 0.07400000095367432, 192.0, 0.0, 0.0, 0.0, 0.0, 0.0, 0.0, 0.0, 0.0, 0.0, 1.6077116809509656E9, 2020-12-11 13:34:40.950
135.0, 491905.359375, 389168.71875, -1767329.0625, -1312328.8125, -1849353.1875, -1729106.0625, -1702471.125, -1838285.4375, 0.5600000023841858, 0.800000011920929, 0.07400000095367432, 192.0, 0.0, 0.0, 0.0, 0.0, 0.0, 0.0, 0.0, 0.0, 0.0, 1.6077116809509676E9, 2020-12-11 13:34:40.950
136.0, 494959.875, 391070.390625, -1764970.3125, -1310419.03125, -1847183.25, -1727391.5625, -1700315.25, -1836240.9375, 0.5600000023841858, 0.800000011920929, 0.07400000095367432, 192.0, 0.0, 0.0, 0.0, 0.0, 0.0, 0.0, 0.0, 0.0, 0.0, 1.6077116809509706E9, 2020-12-11 13:34:40.950
137.0, 497574.46875, 389377.921875, -1764558.375, -1311254.8125, -1847978.8125, -1728996.0, -1699938.0, -1831721.4375, 0.5600000023841858, 0.800000011920929, 0.07400000095367432, 192.0, 0.0, 0.0, 0.0, 0.0, 0.0, 0.0, 0.0, 0.0, 0.0, 1.6077116809509723E9, 2020-12-11 13:34:40.950
138.0, 495424.453125, 387697.78125, -1766380.6875, -1312789.03125, -1849811.8125, -1730476.6875, -1701641.8125, -1832938.125, 0.5600000023841858, 0.800000011920929, 0.07400000095367432, 192.0, 0.0, 0.0, 0.0, 0.0, 0.0, 0.0, 0.0, 0.0, 0.0, 1.6077116809509747E9, 2020-12-11 13:34:40.950
139.0, 492814.640625, 389327.5078125, -1766801.25, -1311947.4375, -1849097.4375, -1728892.5, -1702126.6875, -1837429.125, 0.5600000023841858, 0.800000011920929, 0.07400000095367432, 192.0, 0.0, 0.0, 0.0, 0.0, 0.0, 0.0, 0.0, 0.0, 0.0, 1.6077116809509764E9, 2020-12-11 13:34:40.950
140.0, 494711.484375, 391384.7578125, -1764978.9375, -1310209.3125, -1847123.25, -1727143.125, -1700506.125, -1836949.125, 0.5600000023841858, 0.800000011920929, 0.07400000095367432, 192.0, 0.0, 0.0, 0.0, 0.0, 0.0, 0.0, 0.0, 0.0, 0.0, 1.6077116809509783E9, 2020-12-11 13:34:40.950
141.0, 497801.390625, 390056.53125, -1764146.4375, -1310627.25, -1847432.8125, -1728389.8125, -1699785.75, -1832199.9375, 0.5600000023841858, 0.800000011920929, 0.07400000095367432, 192.0, 0.0, 0.0, 0.0, 0.0, 0.0, 0.0, 0.0, 0.0, 0.0, 1.60771168095098E9, 2020-12-11 13:34:40.950
142.0, 495747.890625, 387281.5078125, -1766397.9375, -1312999.3125, -1849981.3125, -1730905.3125, -1701937.875, -1832570.625, 0.5600000023841858, 0.800000011920929, 0.07400000095367432, 192.0, 0.0, 0.0, 0.0, 0.0, 0.0, 0.0, 0.0, 0.0, 0.0, 1.607711680950982E9, 2020-12-11 13:34:40.950
143.0, 492645.65625, 388450.9453125, -1767332.25, -1312550.34375, -1849756.125, -1729689.1875, -1702779.5625, -1837187.8125, 0.5580000281333923, 0.8020000457763672, 0.07800000160932541, 192.0, 17.0, 112.0, 25.0, 16.0, 2.0, 112.0, 0.0, 0.0, 0.0, 1.6077116809509838E9, 2020-12-11 13:34:40.950
144.0, 493427.8125, 390558.09375, -1765980.0, -1310922.28125, -1847934.375, -1727870.0625, -1701532.3125, -1838169.9375, 0.5580000281333923, 0.8020000457763672, 0.07800000160932541, 192.0, 0.0, 0.0, 0.0, 0.0, 0.0, 0.0, 0.0, 0.0, 0.0, 1.6077116809509869E9, 2020-12-11 13:34:40.950
145.0, 497078.296875, 390124.125, -1764467.25, -1310652.9375, -1847484.75, -1728352.3125, -1700084.4375, -1833322.6875, 0.5580000281333923, 0.8020000457763672, 0.07800000160932541, 192.0, 0.0, 0.0, 0.0, 0.0, 0.0, 0.0, 0.0, 0.0, 0.0, 1.6077116809509888E9, 2020-12-11 13:34:40.950
146.0, 496625.53125, 387910.7578125, -1765649.4375, -1312260.1875, -1849220.25, -1730319.0, -1701064.6875, -1831697.8125, 0.5580000281333923, 0.8020000457763672, 0.07800000160932541, 192.0, 0.0, 0.0, 0.0, 0.0, 0.0, 0.0, 0.0, 0.0, 0.0, 1.6077116809509907E9, 2020-12-11 13:34:40.950
147.0, 492964.828125, 388200.4453125, -1767237.375, -1312638.375, -1849774.875, -1730004.0, -1702586.4375, -1836255.0, 0.5580000281333923, 0.8020000457763672, 0.07800000160932541, 192.0, 0.0, 0.0, 0.0, 0.0, 0.0, 0.0, 0.0, 0.0, 0.0, 1.6077116809509923E9, 2020-12-11 13:34:40.950
148.0, 493205.15625, 390789.3046875, -1765935.375, -1310685.1875, -1847701.5, -1727602.3125, -1701376.3125, -1838058.9375, 0.5580000281333923, 0.8020000457763672, 0.07800000160932541, 192.0, 0.0, 0.0, 0.0, 0.0, 0.0, 0.0, 0.0, 0.0, 0.0, 1.6077116809509945E9, 2020-12-11 13:34:40.950
149.0, 496410.9375, 390236.2265625, -1764702.75, -1310579.4375, -1847436.0, -1728192.5625, -1700182.6875, -1833984.75, 0.5580000281333923, 0.8020000457763672, 0.07800000160932541, 192.0, 0.0, 0.0, 0.0, 0.0, 0.0, 0.0, 0.0, 0.0, 0.0, 1.6077116809509962E9, 2020-12-11 13:34:40.950
150.0, 497128.6875, 388204.734375, -1765293.375, -1311858.84375, -1848817.875, -1729937.0625, -1700686.5, -1831415.625, 0.5580000281333923, 0.8020000457763672, 0.07800000160932541, 192.0, 0.0, 0.0, 0.0, 0.0, 0.0, 0.0, 0.0, 0.0, 0.0, 1.607711680950998E9, 2020-12-11 13:34:40.950
151.0, 493823.15625, 388185.9609375, -1766878.5, -1312253.15625, -1849576.3125, -1729844.625, -1702184.625, -1835159.0625, 0.5580000281333923, 0.8020000457763672, 0.07800000160932541, 192.0, 0.0, 0.0, 0.0, 0.0, 0.0, 0.0, 0.0, 0.0, 0.0, 1.6077116809510005E9, 2020-12-11 13:34:40.951
152.0, 492802.3125, 390428.8125, -1766302.3125, -1310691.5625, -1848045.9375, -1727781.0, -1701744.1875, -1838254.3125, 0.5580000281333923, 0.8020000457763672, 0.07800000160932541, 192.0, 0.0, 0.0, 0.0, 0.0, 0.0, 0.0, 0.0, 0.0, 0.0, 1.6077116809510045E9, 2020-12-11 13:34:40.951
153.0, 496324.59375, 390895.5234375, -1764274.6875, -1309752.84375, -1846779.9375, -1727374.3125, -1699838.8125, -1834461.5625, 0.5580000281333923, 0.8020000457763672, 0.07800000160932541, 192.0, 0.0, 0.0, 0.0, 0.0, 0.0, 0.0, 0.0, 0.0, 0.0, 1.6077116809510064E9, 2020-12-11 13:34:40.951
154.0, 497389.40625, 388591.5, -1764885.5625, -1311345.0, -1848442.3125, -1729615.6875, -1700407.5, -1831423.6875, 0.5560000538825989, 0.8020000457763672, 0.0860000029206276, 192.0, 17.0, 96.0, 25.0, 16.0, 2.0, 176.0, 0.0, 0.0, 0.0, 1.6077116809510083E9, 2020-12-11 13:34:40.951
155.0, 494190.609375, 387898.9453125, -1766742.1875, -1312356.1875, -1849697.0625, -1730201.4375, -1701831.75, -1834557.0, 0.5560000538825989, 0.8020000457763672, 0.0860000029206276, 192.0, 0.0, 0.0, 0.0, 0.0, 0.0, 0.0, 0.0, 0.0, 0.0, 1.6077116809510102E9, 2020-12-11 13:34:40.951
156.0, 492527.625, 389936.3671875, -1766606.625, -1311136.875, -1848476.0625, -1728287.4375, -1701670.875, -1838408.25, 0.5560000538825989, 0.8020000457763672, 0.0860000029206276, 192.0, 0.0, 0.0, 0.0, 0.0, 0.0, 0.0, 0.0, 0.0, 0.0, 1.607711680951012E9, 2020-12-11 13:34:40.951
157.0, 495460.921875, 390697.03125, -1764858.1875, -1310163.75, -1847173.6875, -1727666.8125, -1700046.9375, -1835975.4375, 0.5560000538825989, 0.8020000457763672, 0.0860000029206276, 192.0, 0.0, 0.0, 0.0, 0.0, 0.0, 0.0, 0.0, 0.0, 0.0, 1.607711680951014E9, 2020-12-11 13:34:40.951
158.0, 497272.453125, 388516.9453125, -1765035.375, -1311498.375, -1848396.75, -1729651.125, -1700059.875, -1832102.8125, 0.5560000538825989, 0.8020000457763672, 0.0860000029206276, 192.0, 0.0, 0.0, 0.0, 0.0, 0.0, 0.0, 0.0, 0.0, 0.0, 1.6077116809510157E9, 2020-12-11 13:34:40.951
159.0, 494797.875, 387221.953125, -1766705.25, -1312673.15625, -1849770.5625, -1730524.3125, -1701512.0625, -1834024.875, 0.5560000538825989, 0.8020000457763672, 0.0860000029206276, 192.0, 0.0, 0.0, 0.0, 0.0, 0.0, 0.0, 0.0, 0.0, 0.0, 1.6077116809510188E9, 2020-12-11 13:34:40.951
160.0, 492276.046875, 388816.8046875, -1767140.8125, -1311928.125, -1849067.8125, -1729027.6875, -1701981.9375, -1838550.9375, 0.5560000538825989, 0.8020000457763672, 0.0860000029206276, 192.0, 0.0, 0.0, 0.0, 0.0, 0.0, 0.0, 0.0, 0.0, 0.0, 1.6077116809510207E9, 2020-12-11 13:34:40.951
161.0, 494849.90625, 390546.8203125, -1765121.625, -1310327.90625, -1847205.9375, -1727593.875, -1700253.0, -1837076.8125, 0.5560000538825989, 0.8020000457763672, 0.0860000029206276, 192.0, 0.0, 0.0, 0.0, 0.0, 0.0, 0.0, 0.0, 0.0, 0.0, 1.6077116809510226E9, 2020-12-11 13:34:40.951
162.0, 497410.359375, 388853.8125, -1764680.25, -1311143.8125, -1847962.3125, -1729220.8125, -1699726.125, -1832617.875, 0.5560000538825989, 0.8020000457763672, 0.0860000029206276, 192.0, 0.0, 0.0, 0.0, 0.0, 0.0, 0.0, 0.0, 0.0, 0.0, 1.6077116809510245E9, 2020-12-11 13:34:40.951
163.0, 495282.28125, 387015.4453125, -1766525.625, -1312748.34375, -1849832.8125, -1730821.5, -1701227.625, -1833553.875, 0.5560000538825989, 0.8020000457763672, 0.0860000029206276, 192.0, 0.0, 0.0, 0.0, 0.0, 0.0, 0.0, 0.0, 0.0, 0.0, 1.6077116809510264E9, 2020-12-11 13:34:40.951
164.0, 492487.96875, 388549.125, -1767129.5625, -1312077.1875, -1849266.375, -1729403.8125, -1701782.4375, -1838105.625, 0.5600000023841858, 0.8080000281333923, 0.08000000566244125, 192.0, 17.0, 128.0, 25.0, 64.0, 2.0, 128.0, 0.0, 0.0, 0.0, 1.6077116809510283E9, 2020-12-11 13:34:40.951
165.0, 494507.109375, 390921.2578125, -1765086.1875, -1309943.25, -1847038.5, -1727276.25, -1700089.875, -1837621.3125, 0.5600000023841858, 0.8080000281333923, 0.08000000566244125, 192.0, 0.0, 0.0, 0.0, 0.0, 0.0, 0.0, 0.0, 0.0, 0.0, 1.60771168095103E9, 2020-12-11 13:34:40.951
166.0, 497497.78125, 389590.359375, -1764243.0, -1310349.84375, -1847338.875, -1728518.0625, -1699236.375, -1832955.75, 0.5600000023841858, 0.8080000281333923, 0.08000000566244125, 192.0, 0.0, 0.0, 0.0, 0.0, 0.0, 0.0, 0.0, 0.0, 0.0, 1.607711680951032E9, 2020-12-11 13:34:40.951
167.0, 496215.703125, 387407.0390625, -1765870.5, -1312143.1875, -1849336.125, -1730498.0625, -1700701.5, -1832666.625, 0.5600000023841858, 0.8080000281333923, 0.08000000566244125, 192.0, 0.0, 0.0, 0.0, 0.0, 0.0, 0.0, 0.0, 0.0, 0.0, 1.6077116809510336E9, 2020-12-11 13:34:40.951
168.0, 492906.890625, 388243.875, -1767035.0625, -1311988.6875, -1849428.9375, -1729642.5, -1701864.0, -1837404.5625, 0.5600000023841858, 0.8080000281333923, 0.08000000566244125, 192.0, 0.0, 0.0, 0.0, 0.0, 0.0, 0.0, 0.0, 0.0, 0.0, 1.6077116809510355E9, 2020-12-11 13:34:40.951
169.0, 493653.09375, 390549.515625, -1765601.25, -1310164.78125, -1847425.875, -1727554.125, -1700585.625, -1838415.1875, 0.5600000023841858, 0.8080000281333923, 0.08000000566244125, 192.0, 0.0, 0.0, 0.0, 0.0, 0.0, 0.0, 0.0, 0.0, 0.0, 1.6077116809510374E9, 2020-12-11 13:34:40.951
170.0, 497111.53125, 390016.2890625, -1764189.9375, -1310024.25, -1847078.625, -1728111.0, -1699308.75, -1833655.3125, 0.5600000023841858, 0.8080000281333923, 0.08000000566244125, 192.0, 0.0, 0.0, 0.0, 0.0, 0.0, 0.0, 0.0, 0.0, 0.0, 1.6077116809510393E9, 2020-12-11 13:34:40.951
171.0, 496700.109375, 387548.6484375, -1765497.1875, -1311774.09375, -1849002.9375, -1730245.5, -1700483.625, -1832246.0625, 0.5600000023841858, 0.8080000281333923, 0.08000000566244125, 192.0, 0.0, 0.0, 0.0, 0.0, 0.0, 0.0, 0.0, 0.0, 0.0, 1.6077116809510412E9, 2020-12-11 13:34:40.951
172.0, 492989.53125, 387562.078125, -1767153.1875, -1312291.21875, -1849725.5625, -1730091.5625, -1702015.125, -1836788.625, 0.5600000023841858, 0.8080000281333923, 0.08000000566244125, 192.0, 0.0, 0.0, 0.0, 0.0, 0.0, 0.0, 0.0, 0.0, 0.0, 1.607711680951043E9, 2020-12-11 13:34:40.951
173.0, 493112.34375, 390117.140625, -1765894.6875, -1310458.21875, -1847656.5, -1727697.375, -1700845.6875, -1838778.9375, 0.5600000023841858, 0.8080000281333923, 0.08000000566244125, 192.0, 0.0, 0.0, 0.0, 0.0, 0.0, 0.0, 0.0, 0.0, 0.0, 1.6077116809510448E9, 2020-12-11 13:34:40.951
174.0, 496695.796875, 390010.921875, -1764273.5625, -1309868.15625, -1846958.625, -1727887.6875, -1699253.625, -1834501.875, 0.5580000281333923, 0.8080000281333923, 0.07800000160932541, 192.0, 17.0, 112.0, 25.0, 64.0, 2.0, 112.0, 0.0, 0.0, 0.0, 1.6077116809510467E9, 2020-12-11 13:34:40.951
175.0, 496697.953125, 387183.8671875, -1765548.75, -1311840.09375, -1849110.1875, -1730457.375, -1700277.1875, -1832269.125, 0.5580000281333923, 0.8080000281333923, 0.07800000160932541, 192.0, 0.0, 0.0, 0.0, 0.0, 0.0, 0.0, 0.0, 0.0, 0.0, 1.6077116809510486E9, 2020-12-11 13:34:40.951
176.0, 493223.953125, 386953.21875, -1767251.25, -1312456.96875, -1850007.75, -1730501.25, -1701829.125, -1836022.6875, 0.5580000281333923, 0.8080000281333923, 0.07800000160932541, 192.0, 0.0, 0.0, 0.0, 0.0, 0.0, 0.0, 0.0, 0.0, 0.0, 1.6077116809510503E9, 2020-12-11 13:34:40.951
177.0, 492494.390625, 389514.1875, -1766384.4375, -1310686.21875, -1848141.9375, -1728082.5, -1701031.3125, -1838791.6875, 0.5580000281333923, 0.8080000281333923, 0.07800000160932541, 192.0, 0.0, 0.0, 0.0, 0.0, 0.0, 0.0, 0.0, 0.0, 0.0, 1.6077116809510524E9, 2020-12-11 13:34:40.951
178.0, 495667.453125, 389807.625, -1764712.875, -1309964.15625, -1847147.4375, -1727883.0, -1699483.125, -1835423.4375, 0.5580000281333923, 0.8080000281333923, 0.07800000160932541, 192.0, 0.0, 0.0, 0.0, 0.0, 0.0, 0.0, 0.0, 0.0, 0.0, 1.607711680951054E9, 2020-12-11 13:34:40.951
179.0, 497047.6875, 387703.1484375, -1765043.4375, -1311224.25, -1848492.1875, -1729767.9375, -1699752.9375, -1831842.75, 0.5580000281333923, 0.8080000281333923, 0.07800000160932541, 192.0, 0.0, 0.0, 0.0, 0.0, 0.0, 0.0, 0.0, 0.0, 0.0, 1.607711680951056E9, 2020-12-11 13:34:40.951
180.0, 493666.5, 386585.203125, -1767146.8125, -1312574.53125, -1850083.875, -1730754.5625, -1701766.3125, -1834989.9375, 0.5580000281333923, 0.8080000281333923, 0.07800000160932541, 192.0, 0.0, 0.0, 0.0, 0.0, 0.0, 0.0, 0.0, 0.0, 0.0, 1.607711680951058E9, 2020-12-11 13:34:40.951
181.0, 491790.046875, 388558.78125, -1767206.8125, -1311517.125, -1849048.5, -1729030.3125, -1701848.8125, -1839156.5625, 0.5580000281333923, 0.8080000281333923, 0.07800000160932541, 192.0, 0.0, 0.0, 0.0, 0.0, 0.0, 0.0, 0.0, 0.0, 0.0, 1.6077116809510598E9, 2020-12-11 13:34:40.951
182.0, 495187.3125, 390027.5625, -1764922.125, -1309849.875, -1847128.125, -1727721.9375, -1699590.375, -1836308.625, 0.5580000281333923, 0.8080000281333923, 0.07800000160932541, 192.0, 0.0, 0.0, 0.0, 0.0, 0.0, 0.0, 0.0, 0.0, 0.0, 1.6077116809510615E9, 2020-12-11 13:34:40.951
183.0, 497351.859375, 388136.0625, -1764637.875, -1310704.96875, -1847981.0625, -1729363.5, -1699287.375, -1831963.3125, 0.5580000281333923, 0.8080000281333923, 0.07800000160932541, 192.0, 0.0, 0.0, 0.0, 0.0, 0.0, 0.0, 0.0, 0.0, 0.0, 1.6077116809510646E9, 2020-12-11 13:34:40.951
184.0, 494550.5625, 386579.8359375, -1766699.8125, -1312276.78125, -1849858.5, -1730752.875, -1701288.75, -1834098.375, 0.5600000023841858, 0.800000011920929, 0.07400000095367432, 192.0, 17.0, 128.0, 25.0, 0.0, 2.0, 80.0, 0.0, 0.0, 0.0, 1.6077116809510665E9, 2020-12-11 13:34:40.951
185.0, 492290.53125, 388570.5703125, -1766868.375, -1311230.71875, -1848881.25, -1728958.5, -1701654.1875, -1838425.875, 0.5600000023841858, 0.800000011920929, 0.07400000095367432, 192.0, 0.0, 0.0, 0.0, 0.0, 0.0, 0.0, 0.0, 0.0, 0.0, 1.6077116809510684E9, 2020-12-11 13:34:40.951
186.0, 494413.78125, 390056.53125, -1765209.5625, -1309761.375, -1847279.8125, -1727700.0, -1700118.9375, -1837185.5625, 0.5600000023841858, 0.800000011920929, 0.07400000095367432, 192.0, 0.0, 0.0, 0.0, 0.0, 0.0, 0.0, 0.0, 0.0, 0.0, 1.6077116809510703E9, 2020-12-11 13:34:40.951
187.0, 497181.796875, 388471.3359375, -1764553.5, -1310378.8125, -1847819.0625, -1729130.625, -1699438.125, -1832656.5, 0.5600000023841858, 0.800000011920929, 0.07400000095367432, 192.0, 0.0, 0.0, 0.0, 0.0, 0.0, 0.0, 0.0, 0.0, 0.0, 1.607711680951072E9, 2020-12-11 13:34:40.951
0.0, 0.0, 0.0, 0.0, 0.0, 0.0, 0.0, 0.0, 0.0, 0.5600000023841858, 0.7880000472068787, 0.09200000762939453, 192.0, 17.0, 128.0, 24.0, 160.0, 2.0, 224.0, 0.0, 0.0, 0.0, 1.607711681051636E9, 2020-12-11 13:34:41.051
1.0, 348605.1328125, 324449.6953125, -1708210.5, -1200775.6875, -1797519.5625, -1717749.0, -1648788.375, -1754301.5625, 0.5600000023841858, 0.7880000472068787, 0.09200000762939453, 192.0, 0.0, 0.0, 0.0, 0.0, 0.0, 0.0, 0.0, 0.0, 0.0, 1.6077116815348103E9, 2020-12-11 13:34:41.534
2.0, 345382.171875, 324566.625, -1710513.0, -1201552.5, -1798310.25, -1717745.25, -1650362.8125, -1759979.25, 0.5600000023841858, 0.7880000472068787, 0.09200000762939453, 192.0, 0.0, 0.0, 0.0, 0.0, 0.0, 0.0, 0.0, 0.0, 0.0, 1.6077116815348496E9, 2020-12-11 13:34:41.534
3.0, 346933.5703125, 327605.578125, -1708860.75, -1199294.625, -1795703.625, -1715045.8125, -1648556.625, -1761117.75, 0.5600000023841858, 0.7880000472068787, 0.09200000762939453, 192.0, 0.0, 0.0, 0.0, 0.0, 0.0, 0.0, 0.0, 0.0, 0.0, 1.6077116815348952E9, 2020-12-11 13:34:41.534
4.0, 349995.5859375, 327526.7109375, -1706544.375, -1198537.6875, -1794794.4375, -1715071.125, -1646798.0625, -1755498.375, 0.5600000023841858, 0.7880000472068787, 0.09200000762939453, 192.0, 0.0, 0.0, 0.0, 0.0, 0.0, 0.0, 0.0, 0.0, 0.0, 1.6077116815349455E9, 2020-12-11 13:34:41.534
5.0, 348736.0078125, 324503.859375, -1708060.875, -1200850.3125, -1797333.375, -1717936.3125, -1648506.75, -1754106.375, 0.5600000023841858, 0.7880000472068787, 0.09200000762939453, 192.0, 0.0, 0.0, 0.0, 0.0, 0.0, 0.0, 0.0, 0.0, 0.0, 1.6077116815350025E9, 2020-12-11 13:34:41.535
6.0, 345751.265625, 324348.3046875, -1710397.6875, -1201768.6875, -1798385.8125, -1718205.0, -1650255.0, -1759299.1875, 0.5600000023841858, 0.7880000472068787, 0.09200000762939453, 192.0, 0.0, 0.0, 0.0, 0.0, 0.0, 0.0, 0.0, 0.0, 0.0, 1.6077116815350108E9, 2020-12-11 13:34:41.535
7.0, 346432.0078125, 327293.3671875, -1709322.0, -1199701.78125, -1796058.75, -1715550.1875, -1648855.5, -1761671.8125, 0.5600000023841858, 0.7880000472068787, 0.09200000762939453, 192.0, 0.0, 0.0, 0.0, 0.0, 0.0, 0.0, 0.0, 0.0, 0.0, 1.6077116815350215E9, 2020-12-11 13:34:41.535
8.0, 349715.015625, 328056.7265625, -1706603.4375, -1198299.46875, -1794504.75, -1714792.125, -1646792.25, -1756480.6875, 0.5540000200271606, 0.8060000538825989, 0.1080000028014183, 192.0, 17.0, 80.0, 25.0, 48.0, 3.0, 96.0, 0.0, 0.0, 0.0, 1.6077116815350237E9, 2020-12-11 13:34:41.535
9.0, 349379.203125, 325237.7109375, -1707396.1875, -1200169.5, -1796580.75, -1717293.0, -1647872.0625, -1753469.0625, 0.5540000200271606, 0.8060000538825989, 0.1080000028014183, 192.0, 0.0, 0.0, 0.0, 0.0, 0.0, 0.0, 0.0, 0.0, 0.0, 1.607711681535027E9, 2020-12-11 13:34:41.535
10.0, 346169.671875, 324204.0, -1710027.5625, -1201639.96875, -1798203.5625, -1718239.875, -1649899.875, -1757972.0625, 0.5540000200271606, 0.8060000538825989, 0.1080000028014183, 192.0, 0.0, 0.0, 0.0, 0.0, 0.0, 0.0, 0.0, 0.0, 0.0, 1.6077116815350287E9, 2020-12-11 13:34:41.535
11.0, 346256.0390625, 327011.7421875, -1709485.125, -1199735.0625, -1796158.125, -1715657.4375, -1648910.625, -1761462.0, 0.5540000200271606, 0.8060000538825989, 0.1080000028014183, 192.0, 0.0, 0.0, 0.0, 0.0, 0.0, 0.0, 0.0, 0.0, 0.0, 1.6077116815350308E9, 2020-12-11 13:34:41.535
12.0, 349760.625, 328628.578125, -1706499.75, -1197733.03125, -1793962.3125, -1714138.6875, -1646437.6875, -1757101.3125, 0.5540000200271606, 0.8060000538825989, 0.1080000028014183, 192.0, 0.0, 0.0, 0.0, 0.0, 0.0, 0.0, 0.0, 0.0, 0.0, 1.6077116815350335E9, 2020-12-11 13:34:41.535
13.0, 349984.3125, 326167.3828125, -1706787.9375, -1199445.375, -1795737.5625, -1716536.0625, -1647164.625, -1753264.6875, 0.5540000200271606, 0.8060000538825989, 0.1080000028014183, 192.0, 0.0, 0.0, 0.0, 0.0, 0.0, 0.0, 0.0, 0.0, 0.0, 1.6077116815350354E9, 2020-12-11 13:34:41.535
14.0, 347386.875, 324965.203125, -1708964.25, -1200891.5625, -1797350.625, -1717582.6875, -1648893.9375, -1756287.0, 0.5540000200271606, 0.8060000538825989, 0.1080000028014183, 192.0, 0.0, 0.0, 0.0, 0.0, 0.0, 0.0, 0.0, 0.0, 0.0, 1.6077116815350373E9, 2020-12-11 13:34:41.535
15.0, 346634.2265625, 327195.7265625, -1709106.9375, -1199510.25, -1795925.8125, -1715488.5, -1648513.6875, -1760690.625, 0.5540000200271606, 0.8060000538825989, 0.1080000028014183, 192.0, 0.0, 0.0, 0.0, 0.0, 0.0, 0.0, 0.0, 0.0, 0.0, 1.6077116815350392E9, 2020-12-11 13:34:41.535
16.0, 349842.703125, 329298.5859375, -1706316.375, -1197270.65625, -1793489.8125, -1713586.3125, -1646045.4375, -1757698.3125, 0.5540000200271606, 0.8060000538825989, 0.1080000028014183, 192.0, 0.0, 0.0, 0.0, 0.0, 0.0, 0.0, 0.0, 0.0, 0.0, 1.6077116815350409E9, 2020-12-11 13:34:41.535
17.0, 350706.375, 326762.296875, -1706165.0625, -1198795.6875, -1794985.875, -1715850.5625, -1646416.6875, -1753117.6875, 0.5540000200271606, 0.8060000538825989, 0.1080000028014183, 192.0, 0.0, 0.0, 0.0, 0.0, 0.0, 0.0, 0.0, 0.0, 0.0, 1.6077116815350428E9, 2020-12-11 13:34:41.535
18.0, 347883.0703125, 324552.6796875, -1708707.75, -1201061.15625, -1797428.25, -1718001.1875, -1648708.875, -1755371.25, 0.5380000472068787, 0.8100000619888306, 0.12200000882148743, 192.0, 16.0, 208.0, 25.0, 80.0, 3.0, 208.0, 0.0, 0.0, 0.0, 1.6077116815350487E9, 2020-12-11 13:34:41.535
19.0, 346316.671875, 326315.4375, -1709506.125, -1200261.84375, -1796587.125, -1716415.875, -1648837.6875, -1760334.9375, 0.5380000472068787, 0.8100000619888306, 0.12200000882148743, 192.0, 0.0, 0.0, 0.0, 0.0, 0.0, 0.0, 0.0, 0.0, 0.0, 1.6077116815350506E9, 2020-12-11 13:34:41.535
20.0, 348649.640625, 328446.703125, -1707394.6875, -1198300.03125, -1794400.125, -1714481.0625, -1646925.75, -1759094.25, 0.5380000472068787, 0.8100000619888306, 0.12200000882148743, 192.0, 0.0, 0.0, 0.0, 0.0, 0.0, 0.0, 0.0, 0.0, 0.0, 1.6077116815350523E9, 2020-12-11 13:34:41.535
21.0, 350584.59375, 327000.46875, -1706255.8125, -1198811.8125, -1794923.25, -1715805.9375, -1646423.625, -1753793.625, 0.5380000472068787, 0.8100000619888306, 0.12200000882148743, 192.0, 0.0, 0.0, 0.0, 0.0, 0.0, 0.0, 0.0, 0.0, 0.0, 1.6077116815350544E9, 2020-12-11 13:34:41.535
22.0, 348351.3984375, 324470.0625, -1708370.4375, -1201065.375, -1797380.0625, -1718170.125, -1648348.5, -1754459.8125, 0.5380000472068787, 0.8100000619888306, 0.12200000882148743, 192.0, 0.0, 0.0, 0.0, 0.0, 0.0, 0.0, 0.0, 0.0, 0.0, 1.607711681535056E9, 2020-12-11 13:34:41.535
23.0, 346110.6796875, 325644.8671875, -1709915.8125, -1200964.03125, -1797335.625, -1717239.375, -1649268.0, -1759948.3125, 0.5380000472068787, 0.8100000619888306, 0.12200000882148743, 192.0, 0.0, 0.0, 0.0, 0.0, 0.0, 0.0, 0.0, 0.0, 0.0, 1.607711681535058E9, 2020-12-11 13:34:41.535
24.0, 348215.671875, 328709.578125, -1707814.6875, -1198457.25, -1794659.25, -1714485.375, -1647221.4375, -1759754.0625, 0.5380000472068787, 0.8100000619888306, 0.12200000882148743, 192.0, 0.0, 0.0, 0.0, 0.0, 0.0, 0.0, 0.0, 0.0, 0.0, 1.6077116815350597E9, 2020-12-11 13:34:41.535
25.0, 350441.90625, 327687.65625, -1706261.0625, -1198561.78125, -1794699.375, -1715443.875, -1646374.3125, -1754475.375, 0.5380000472068787, 0.8100000619888306, 0.12200000882148743, 192.0, 0.0, 0.0, 0.0, 0.0, 0.0, 0.0, 0.0, 0.0, 0.0, 1.6077116815350616E9, 2020-12-11 13:34:41.535
26.0, 348649.640625, 324482.953125, -1708093.125, -1200887.8125, -1797300.75, -1718165.25, -1648335.5625, -1753941.75, 0.5380000472068787, 0.8100000619888306, 0.12200000882148743, 192.0, 0.0, 0.0, 0.0, 0.0, 0.0, 0.0, 0.0, 0.0, 0.0, 1.6077116815350635E9, 2020-12-11 13:34:41.535
27.0, 345950.8125, 324834.84375, -1710116.4375, -1201391.0625, -1797960.0, -1717970.625, -1649749.6875, -1759465.875, 0.5380000472068787, 0.8100000619888306, 0.12200000882148743, 192.0, 0.0, 0.0, 0.0, 0.0, 0.0, 0.0, 0.0, 0.0, 0.0, 1.6077116815350654E9, 2020-12-11 13:34:41.535
28.0, 347025.84375, 327544.4296875, -1708898.25, -1199460.375, -1795871.0625, -1715627.4375, -1648363.5, -1761154.125, 0.5420000553131104, 0.7980000376701355, 0.11800000816583633, 192.0, 16.0, 240.0, 24.0, 240.0, 3.0, 176.0, 0.0, 0.0, 0.0, 1.607711681535067E9, 2020-12-11 13:34:41.535
29.0, 349930.6640625, 327298.1953125, -1706776.125, -1198868.15625, -1795218.1875, -1715786.25, -1646966.0625, -1755938.25, 0.5420000553131104, 0.7980000376701355, 0.11800000816583633, 192.0, 0.0, 0.0, 0.0, 0.0, 0.0, 0.0, 0.0, 0.0, 0.0, 1.6077116815350692E9, 2020-12-11 13:34:41.535
30.0, 348954.3515625, 324412.125, -1708027.125, -1201009.03125, -1797594.1875, -1718491.5, -1648532.4375, -1754115.0, 0.5420000553131104, 0.7980000376701355, 0.11800000816583633, 192.0, 0.0, 0.0, 0.0, 0.0, 0.0, 0.0, 0.0, 0.0, 0.0, 1.607711681535071E9, 2020-12-11 13:34:41.535
31.0, 345549.0234375, 323824.734375, -1710638.4375, -1202328.1875, -1799082.1875, -1719168.375, -1650583.3125, -1759394.0625, 0.5420000553131104, 0.7980000376701355, 0.11800000816583633, 192.0, 0.0, 0.0, 0.0, 0.0, 0.0, 0.0, 0.0, 0.0, 0.0, 1.6077116815350728E9, 2020-12-11 13:34:41.535
32.0, 346175.578125, 326827.734375, -1709654.625, -1200248.90625, -1796861.25, -1716456.1875, -1649349.0, -1762053.75, 0.5420000553131104, 0.7980000376701355, 0.11800000816583633, 192.0, 0.0, 0.0, 0.0, 0.0, 0.0, 0.0, 0.0, 0.0, 0.0, 1.6077116815350747E9, 2020-12-11 13:34:41.535
33.0, 349616.859375, 327698.3671875, -1706901.5625, -1198802.71875, -1795235.8125, -1715605.875, -1647222.9375, -1757044.5, 0.5420000553131104, 0.7980000376701355, 0.11800000816583633, 192.0, 0.0, 0.0, 0.0, 0.0, 0.0, 0.0, 0.0, 0.0, 0.0, 1.6077116815350766E9, 2020-12-11 13:34:41.535
34.0, 348934.5, 324504.3984375, -1707953.625, -1201075.59375, -1797670.875, -1718560.6875, -1648647.75, -1754315.625, 0.5420000553131104, 0.7980000376701355, 0.11800000816583633, 192.0, 0.0, 0.0, 0.0, 0.0, 0.0, 0.0, 0.0, 0.0, 0.0, 1.6077116815350783E9, 2020-12-11 13:34:41.535
35.0, 345584.4140625, 323245.3828125, -1710716.25, -1202757.375, -1799593.875, -1719762.375, -1650855.75, -1758814.125, 0.5420000553131104, 0.7980000376701355, 0.11800000816583633, 192.0, 0.0, 0.0, 0.0, 0.0, 0.0, 0.0, 0.0, 0.0, 0.0, 1.6077116815350804E9, 2020-12-11 13:34:41.535
36.0, 345420.28125, 325965.6796875, -1710381.5625, -1201032.1875, -1797806.625, -1717330.6875, -1650093.0, -1762598.25, 0.5420000553131104, 0.7980000376701355, 0.11800000816583633, 192.0, 0.0, 0.0, 0.0, 0.0, 0.0, 0.0, 0.0, 0.0, 0.0, 1.607711681535082E9, 2020-12-11 13:34:41.535
37.0, 348885.140625, 327601.828125, -1707436.5, -1198934.625, -1795570.6875, -1715705.25, -1647657.0, -1758576.0, 0.5420000553131104, 0.7980000376701355, 0.11800000816583633, 192.0, 0.0, 0.0, 0.0, 0.0, 0.0, 0.0, 0.0, 0.0, 0.0, 1.607711681535084E9, 2020-12-11 13:34:41.535
38.0, 349382.4375, 325304.765625, -1707342.5625, -1200187.78125, -1796992.125, -1717737.1875, -1648019.0625, -1754217.9375, 0.5580000281333923, 0.7820000648498535, 0.1080000028014183, 192.0, 17.0, 112.0, 24.0, 112.0, 3.0, 96.0, 0.0, 0.0, 0.0, 1.6077116815350864E9, 2020-12-11 13:34:41.535
39.0, 346162.171875, 323378.4140625, -1710147.5625, -1202216.625, -1799367.5625, -1719584.25, -1650482.4375, -1757652.75, 0.5580000281333923, 0.7820000648498535, 0.1080000028014183, 192.0, 0.0, 0.0, 0.0, 0.0, 0.0, 0.0, 0.0, 0.0, 0.0, 1.6077116815350883E9, 2020-12-11 13:34:41.535
40.0, 344921.90625, 325360.03125, -1710770.4375, -1201287.46875, -1798403.0625, -1717849.3125, -1650557.0625, -1762488.1875, 0.5580000281333923, 0.7820000648498535, 0.1080000028014183, 192.0, 0.0, 0.0, 0.0, 0.0, 0.0, 0.0, 0.0, 0.0, 0.0, 1.60771168153509E9, 2020-12-11 13:34:41.535
41.0, 348169.0078125, 327812.6484375, -1707958.875, -1198932.46875, -1795822.3125, -1715601.1875, -1648062.0, -1759541.0625, 0.5580000281333923, 0.7820000648498535, 0.1080000028014183, 192.0, 0.0, 0.0, 0.0, 0.0, 0.0, 0.0, 0.0, 0.0, 0.0, 1.6077116815350933E9, 2020-12-11 13:34:41.535
42.0, 349646.90625, 325933.4765625, -1707120.0, -1199561.25, -1796608.6875, -1717126.6875, -1647858.75, -1754431.5, 0.5580000281333923, 0.7820000648498535, 0.1080000028014183, 192.0, 0.0, 0.0, 0.0, 0.0, 0.0, 0.0, 0.0, 0.0, 0.0, 1.6077116815350947E9, 2020-12-11 13:34:41.535
43.0, 346838.625, 323525.9296875, -1709577.9375, -1201726.875, -1799084.8125, -1719290.25, -1650136.5, -1756443.1875, 0.5580000281333923, 0.7820000648498535, 0.1080000028014183, 192.0, 0.0, 0.0, 0.0, 0.0, 0.0, 0.0, 0.0, 0.0, 0.0, 1.607711681535097E9, 2020-12-11 13:34:41.535
44.0, 345211.59375, 325219.4765625, -1710498.0, -1200997.3125, -1798350.0, -1717725.375, -1650363.9375, -1761473.25, 0.5580000281333923, 0.7820000648498535, 0.1080000028014183, 192.0, 0.0, 0.0, 0.0, 0.0, 0.0, 0.0, 0.0, 0.0, 0.0, 1.6077116815350986E9, 2020-12-11 13:34:41.535
45.0, 347824.0546875, 327915.09375, -1708022.8125, -1198485.65625, -1795580.8125, -1715129.0625, -1647911.8125, -1759921.875, 0.5580000281333923, 0.7820000648498535, 0.1080000028014183, 192.0, 0.0, 0.0, 0.0, 0.0, 0.0, 0.0, 0.0, 0.0, 0.0, 1.6077116815351005E9, 2020-12-11 13:34:41.535
46.0, 349584.6796875, 326302.0078125, -1706953.6875, -1199105.8125, -1796155.3125, -1716553.3125, -1647499.3125, -1754754.9375, 0.5580000281333923, 0.7820000648498535, 0.1080000028014183, 192.0, 0.0, 0.0, 0.0, 0.0, 0.0, 0.0, 0.0, 0.0, 0.0, 1.6077116815351024E9, 2020-12-11 13:34:41.535
47.0, 347389.546875, 323577.421875, -1709123.625, -1201461.84375, -1798732.875, -1719098.625, -1649594.625, -1755250.6875, 0.5580000281333923, 0.7820000648498535, 0.1080000028014183, 192.0, 0.0, 0.0, 0.0, 0.0, 0.0, 0.0, 0.0, 0.0, 0.0, 1.607711681535104E9, 2020-12-11 13:34:41.535
48.0, 345177.796875, 324670.171875, -1710751.125, -1201477.96875, -1798731.375, -1718283.375, -1650494.25, -1760792.625, 0.5740000009536743, 0.7900000214576721, 0.10600000619888306, 192.0, 17.0, 240.0, 24.0, 176.0, 3.0, 80.0, 0.0, 0.0, 0.0, 1.607711681535106E9, 2020-12-11 13:34:41.535
49.0, 347819.2265625, 328204.78125, -1708432.6875, -1198796.8125, -1795757.8125, -1715270.0625, -1648149.0, -1760739.5625, 0.5740000009536743, 0.7900000214576721, 0.10600000619888306, 192.0, 0.0, 0.0, 0.0, 0.0, 0.0, 0.0, 0.0, 0.0, 0.0, 1.6077116815351079E9, 2020-12-11 13:34:41.535
50.0, 350439.2109375, 327709.1015625, -1706385.0, -1198341.84375, -1795211.25, -1715608.6875, -1646742.9375, -1754913.75, 0.5740000009536743, 0.7900000214576721, 0.10600000619888306, 192.0, 0.0, 0.0, 0.0, 0.0, 0.0, 0.0, 0.0, 0.0, 0.0, 1.6077116815351095E9, 2020-12-11 13:34:41.535
51.0, 348446.34375, 324481.875, -1707998.625, -1200502.6875, -1797553.3125, -1718143.3125, -1648373.0625, -1753890.75, 0.5740000009536743, 0.7900000214576721, 0.10600000619888306, 192.0, 0.0, 0.0, 0.0, 0.0, 0.0, 0.0, 0.0, 0.0, 0.0, 1.6077116815351114E9, 2020-12-11 13:34:41.535
52.0, 345889.125, 324903.515625, -1710023.25, -1201030.03125, -1798164.375, -1717992.0, -1649804.4375, -1759252.5, 0.5740000009536743, 0.7900000214576721, 0.10600000619888306, 192.0, 0.0, 0.0, 0.0, 0.0, 0.0, 0.0, 0.0, 0.0, 0.0, 1.607711681535113E9, 2020-12-11 13:34:41.535
53.0, 346989.890625, 327805.125, -1708852.6875, -1199086.5, -1795980.9375, -1715553.375, -1648485.1875, -1761077.4375, 0.5740000009536743, 0.7900000214576721, 0.10600000619888306, 192.0, 0.0, 0.0, 0.0, 0.0, 0.0, 0.0, 0.0, 0.0, 0.0, 1.607711681535115E9, 2020-12-11 13:34:41.535
54.0, 349995.5859375, 327905.9765625, -1706484.1875, -1198208.8125, -1794955.875, -1715399.4375, -1646787.375, -1755729.5625, 0.5740000009536743, 0.7900000214576721, 0.10600000619888306, 192.0, 0.0, 0.0, 0.0, 0.0, 0.0, 0.0, 0.0, 0.0, 0.0, 1.607711681535117E9, 2020-12-11 13:34:41.535
55.0, 349349.6953125, 325114.3359375, -1707546.375, -1200270.9375, -1797178.3125, -1718065.5, -1648261.5, -1753653.5625, 0.5740000009536743, 0.7900000214576721, 0.10600000619888306, 192.0, 0.0, 0.0, 0.0, 0.0, 0.0, 0.0, 0.0, 0.0, 0.0, 1.6077116815351186E9, 2020-12-11 13:34:41.535
56.0, 346575.7734375, 324914.25, -1709743.125, -1201135.125, -1798213.6875, -1718414.25, -1649927.25, -1758341.0625, 0.5740000009536743, 0.7900000214576721, 0.10600000619888306, 192.0, 0.0, 0.0, 0.0, 0.0, 0.0, 0.0, 0.0, 0.0, 0.0, 1.6077116815351205E9, 2020-12-11 13:34:41.535
57.0, 346786.0546875, 327739.6875, -1709108.0625, -1199280.65625, -1796194.5, -1715942.8125, -1648867.125, -1761301.125, 0.5740000009536743, 0.7900000214576721, 0.10600000619888306, 192.0, 0.0, 0.0, 0.0, 0.0, 0.0, 0.0, 0.0, 0.0, 0.0, 1.6077116815351224E9, 2020-12-11 13:34:41.535
58.0, 349910.296875, 328541.671875, -1706697.75, -1198064.53125, -1794797.625, -1715296.875, -1647151.125, -1756890.0, 0.5740000009536743, 0.7900000214576721, 0.10600000619888306, 192.0, 0.0, 0.0, 0.0, 0.0, 0.0, 0.0, 0.0, 0.0, 0.0, 1.607711681535124E9, 2020-12-11 13:34:41.535
59.0, 350266.4765625, 326093.34375, -1706984.25, -1199603.0625, -1796483.625, -1717567.125, -1647845.25, -1753600.5, 0.5680000185966492, 0.8080000281333923, 0.11400000751018524, 192.0, 17.0, 192.0, 25.0, 64.0, 3.0, 144.0, 0.0, 0.0, 0.0, 1.607711681535126E9, 2020-12-11 13:34:41.535
60.0, 347164.2421875, 324857.90625, -1709564.4375, -1201178.0625, -1798186.875, -1718684.625, -1649546.25, -1757422.6875, 0.5680000185966492, 0.8080000281333923, 0.11400000751018524, 192.0, 0.0, 0.0, 0.0, 0.0, 0.0, 0.0, 0.0, 0.0, 0.0, 1.6077116815351276E9, 2020-12-11 13:34:41.535
61.0, 346740.4453125, 327612.5390625, -1709310.1875, -1199489.90625, -1796383.3125, -1716253.5, -1648842.5625, -1761315.5625, 0.5680000185966492, 0.8080000281333923, 0.11400000751018524, 192.0, 0.0, 0.0, 0.0, 0.0, 0.0, 0.0, 0.0, 0.0, 0.0, 1.6077116815351295E9, 2020-12-11 13:34:41.535
62.0, 350085.703125, 329549.109375, -1706373.1875, -1197422.4375, -1794076.6875, -1714561.5, -1646458.125, -1757480.625, 0.5680000185966492, 0.8080000281333923, 0.11400000751018524, 192.0, 0.0, 0.0, 0.0, 0.0, 0.0, 0.0, 0.0, 0.0, 0.0, 1.6077116815351315E9, 2020-12-11 13:34:41.535
63.0, 350781.46875, 327209.671875, -1706187.5625, -1198780.6875, -1795438.125, -1716609.5625, -1646748.75, -1753022.8125, 0.5680000185966492, 0.8080000281333923, 0.11400000751018524, 192.0, 0.0, 0.0, 0.0, 0.0, 0.0, 0.0, 0.0, 0.0, 0.0, 1.6077116815351331E9, 2020-12-11 13:34:41.535
64.0, 347551.546875, 324929.8125, -1709066.25, -1201086.28125, -1797902.0625, -1718691.5625, -1649238.9375, -1756128.75, 0.5680000185966492, 0.8080000281333923, 0.11400000751018524, 192.0, 0.0, 0.0, 0.0, 0.0, 0.0, 0.0, 0.0, 0.0, 0.0, 1.607711681535136E9, 2020-12-11 13:34:41.535
65.0, 346480.8046875, 327060.0, -1709621.4375, -1200083.71875, -1796769.5625, -1716824.25, -1649264.625, -1761029.0625, 0.5680000185966492, 0.8080000281333923, 0.11400000751018524, 192.0, 0.0, 0.0, 0.0, 0.0, 0.0, 0.0, 0.0, 0.0, 0.0, 1.607711681535138E9, 2020-12-11 13:34:41.535
66.0, 349713.421875, 329583.4453125, -1706727.75, -1197588.1875, -1794023.0625, -1714469.25, -1646698.875, -1758375.375, 0.5680000185966492, 0.8080000281333923, 0.11400000751018524, 192.0, 0.0, 0.0, 0.0, 0.0, 0.0, 0.0, 0.0, 0.0, 0.0, 1.6077116815351396E9, 2020-12-11 13:34:41.535
67.0, 350891.4375, 327513.84375, -1706191.3125, -1198619.71875, -1795138.875, -1716352.125, -1646737.5, -1753626.1875, 0.5680000185966492, 0.8080000281333923, 0.11400000751018524, 192.0, 0.0, 0.0, 0.0, 0.0, 0.0, 0.0, 0.0, 0.0, 0.0, 1.6077116815351415E9, 2020-12-11 13:34:41.535
68.0, 348001.1015625, 324722.203125, -1708881.5625, -1201138.875, -1797864.375, -1718850.375, -1649172.375, -1755519.9375, 0.5680000185966492, 0.8080000281333923, 0.11400000751018524, 192.0, 0.0, 0.0, 0.0, 0.0, 0.0, 0.0, 0.0, 0.0, 0.0, 1.6077116815351431E9, 2020-12-11 13:34:41.535
69.0, 346067.765625, 326172.7265625, -1710158.4375, -1200787.03125, -1797466.5, -1717637.4375, -1649832.1875, -1760797.875, 0.562000036239624, 0.8040000200271606, 0.12000000476837158, 192.0, 17.0, 144.0, 25.0, 32.0, 3.0, 192.0, 0.0, 0.0, 0.0, 1.607711681535145E9, 2020-12-11 13:34:41.535
70.0, 348718.8515625, 329331.3046875, -1707654.75, -1198158.46875, -1794599.625, -1714869.375, -1647432.75, -1759773.375, 0.562000036239624, 0.8040000200271606, 0.12000000476837158, 192.0, 0.0, 0.0, 0.0, 0.0, 0.0, 0.0, 0.0, 0.0, 0.0, 1.6077116815351467E9, 2020-12-11 13:34:41.535
71.0, 350756.7890625, 327922.6171875, -1706259.0, -1198438.96875, -1794830.4375, -1716014.625, -1646700.0, -1754250.75, 0.562000036239624, 0.8040000200271606, 0.12000000476837158, 192.0, 0.0, 0.0, 0.0, 0.0, 0.0, 0.0, 0.0, 0.0, 0.0, 1.6077116815351496E9, 2020-12-11 13:34:41.535
72.0, 348248.9296875, 324555.890625, -1708772.25, -1201265.53125, -1797846.1875, -1719027.375, -1649169.1875, -1754943.75, 0.562000036239624, 0.8040000200271606, 0.12000000476837158, 192.0, 0.0, 0.0, 0.0, 0.0, 0.0, 0.0, 0.0, 0.0, 0.0, 1.6077116815351512E9, 2020-12-11 13:34:41.535
73.0, 346197.046875, 325745.71875, -1710169.125, -1201090.59375, -1797681.5625, -1718028.5625, -1649941.6875, -1760263.6875, 0.562000036239624, 0.8040000200271606, 0.12000000476837158, 192.0, 0.0, 0.0, 0.0, 0.0, 0.0, 0.0, 0.0, 0.0, 0.0, 1.6077116815351532E9, 2020-12-11 13:34:41.535
74.0, 347932.4296875, 328706.34375, -1708365.5625, -1198791.46875, -1795124.25, -1715375.25, -1648062.5625, -1760834.4375, 0.562000036239624, 0.8040000200271606, 0.12000000476837158, 192.0, 0.0, 0.0, 0.0, 0.0, 0.0, 0.0, 0.0, 0.0, 0.0, 1.607711681535155E9, 2020-12-11 13:34:41.535
75.0, 350429.0390625, 328018.640625, -1706513.25, -1198482.9375, -1794722.0625, -1715851.6875, -1646789.0625, -1755359.4375, 0.562000036239624, 0.8040000200271606, 0.12000000476837158, 192.0, 0.0, 0.0, 0.0, 0.0, 0.0, 0.0, 0.0, 0.0, 0.0, 1.6077116815351567E9, 2020-12-11 13:34:41.535
76.0, 348642.140625, 324664.265625, -1708440.1875, -1201115.25, -1797553.3125, -1718938.3125, -1648818.9375, -1754576.25, 0.562000036239624, 0.8040000200271606, 0.12000000476837158, 192.0, 0.0, 0.0, 0.0, 0.0, 0.0, 0.0, 0.0, 0.0, 0.0, 1.6077116815351586E9, 2020-12-11 13:34:41.535
77.0, 345734.625, 324700.1953125, -1710660.0, -1201875.9375, -1798401.9375, -1718971.125, -1650463.6875, -1760039.4375, 0.562000036239624, 0.8040000200271606, 0.12000000476837158, 192.0, 0.0, 0.0, 0.0, 0.0, 0.0, 0.0, 0.0, 0.0, 0.0, 1.6077116815351603E9, 2020-12-11 13:34:41.535
78.0, 347285.484375, 328175.8125, -1708914.375, -1199197.5, -1795549.6875, -1715731.5, -1648439.625, -1761519.0, 0.562000036239624, 0.8040000200271606, 0.12000000476837158, 192.0, 0.0, 0.0, 0.0, 0.0, 0.0, 0.0, 0.0, 0.0, 0.0, 1.6077116815351622E9, 2020-12-11 13:34:41.535
79.0, 350139.890625, 328124.859375, -1706781.0, -1198502.8125, -1794716.625, -1715696.0625, -1646845.3125, -1756326.1875, 0.5580000281333923, 0.7880000472068787, 0.12600000202655792, 192.0, 17.0, 112.0, 24.0, 160.0, 3.0, 240.0, 0.0, 0.0, 0.0, 1.607711681535164E9, 2020-12-11 13:34:41.535
80.0, 349038.5625, 324975.3984375, -1708010.4375, -1200833.625, -1797219.75, -1718601.375, -1648458.375, -1754268.9375, 0.5580000281333923, 0.7880000472068787, 0.12600000202655792, 192.0, 0.0, 0.0, 0.0, 0.0, 0.0, 0.0, 0.0, 0.0, 0.0, 1.607711681535166E9, 2020-12-11 13:34:41.535
81.0, 345935.7890625, 324466.8515625, -1710434.625, -1202040.09375, -1798565.625, -1719213.5625, -1650331.125, -1759044.375, 0.5580000281333923, 0.7880000472068787, 0.12600000202655792, 192.0, 0.0, 0.0, 0.0, 0.0, 0.0, 0.0, 0.0, 0.0, 0.0, 1.6077116815351677E9, 2020-12-11 13:34:41.535
82.0, 346159.4765625, 326994.0234375, -1709874.0, -1200216.75, -1796587.125, -1716739.5, -1649330.25, -1762284.9375, 0.5580000281333923, 0.7880000472068787, 0.12600000202655792, 192.0, 0.0, 0.0, 0.0, 0.0, 0.0, 0.0, 0.0, 0.0, 0.0, 1.6077116815351696E9, 2020-12-11 13:34:41.535
83.0, 349374.375, 328011.1171875, -1707188.625, -1198639.03125, -1794846.0, -1715678.8125, -1647200.4375, -1757706.375, 0.5580000281333923, 0.7880000472068787, 0.12600000202655792, 192.0, 0.0, 0.0, 0.0, 0.0, 0.0, 0.0, 0.0, 0.0, 0.0, 1.6077116815351715E9, 2020-12-11 13:34:41.535
84.0, 349646.3671875, 325629.8671875, -1707423.0, -1200160.40625, -1796574.375, -1717938.375, -1647916.6875, -1754108.4375, 0.5580000281333923, 0.7880000472068787, 0.12600000202655792, 192.0, 0.0, 0.0, 0.0, 0.0, 0.0, 0.0, 0.0, 0.0, 0.0, 1.6077116815351732E9, 2020-12-11 13:34:41.535
85.0, 346398.2109375, 324112.265625, -1710144.9375, -1201930.6875, -1798640.25, -1719383.625, -1650256.125, -1758161.8125, 0.5580000281333923, 0.7880000472068787, 0.12600000202655792, 192.0, 0.0, 0.0, 0.0, 0.0, 0.0, 0.0, 0.0, 0.0, 0.0, 1.607711681535175E9, 2020-12-11 13:34:41.535
86.0, 345930.421875, 326639.9765625, -1710091.875, -1200371.8125, -1797031.875, -1717099.3125, -1649728.6875, -1762269.9375, 0.5580000281333923, 0.7880000472068787, 0.12600000202655792, 192.0, 0.0, 0.0, 0.0, 0.0, 0.0, 0.0, 0.0, 0.0, 0.0, 1.607711681535177E9, 2020-12-11 13:34:41.535
87.0, 349200.5859375, 328481.578125, -1707343.125, -1198363.875, -1794818.625, -1715376.9375, -1647460.6875, -1758984.1875, 0.5580000281333923, 0.7880000472068787, 0.12600000202655792, 192.0, 0.0, 0.0, 0.0, 0.0, 0.0, 0.0, 0.0, 0.0, 0.0, 1.607711681535179E9, 2020-12-11 13:34:41.535
88.0, 350173.6875, 326247.3046875, -1707099.0, -1199617.03125, -1796193.375, -1717452.375, -1647761.0625, -1754659.5, 0.5580000281333923, 0.7880000472068787, 0.12600000202655792, 192.0, 0.0, 0.0, 0.0, 0.0, 0.0, 0.0, 0.0, 0.0, 0.0, 1.6077116815351815E9, 2020-12-11 13:34:41.535
89.0, 347005.9921875, 323996.9296875, -1709896.125, -1201890.46875, -1798743.75, -1719576.75, -1650193.875, -1757556.75, 0.562000036239624, 0.7880000472068787, 0.12000000476837158, 192.0, 17.0, 144.0, 24.0, 160.0, 3.0, 192.0, 0.0, 0.0, 0.0, 1.6077116815351834E9, 2020-12-11 13:34:41.535
90.0, 345609.6328125, 325967.8125, -1710547.875, -1200966.1875, -1797706.125, -1717765.125, -1650185.8125, -1762450.125, 0.562000036239624, 0.7880000472068787, 0.12000000476837158, 192.0, 0.0, 0.0, 0.0, 0.0, 0.0, 0.0, 0.0, 0.0, 0.0, 1.607711681535185E9, 2020-12-11 13:34:41.535
91.0, 348855.6328125, 328867.828125, -1707615.1875, -1198337.0625, -1794788.0625, -1715165.0625, -1647491.8125, -1760085.5625, 0.562000036239624, 0.7880000472068787, 0.12000000476837158, 192.0, 0.0, 0.0, 0.0, 0.0, 0.0, 0.0, 0.0, 0.0, 0.0, 1.6077116815351872E9, 2020-12-11 13:34:41.535
92.0, 350346.421875, 326968.2890625, -1706705.25, -1199093.4375, -1795585.125, -1716793.125, -1647237.0, -1754985.0, 0.562000036239624, 0.7880000472068787, 0.12000000476837158, 192.0, 0.0, 0.0, 0.0, 0.0, 0.0, 0.0, 0.0, 0.0, 0.0, 1.607711681535189E9, 2020-12-11 13:34:41.535
93.0, 347100.3984375, 323676.140625, -1709802.1875, -1202090.53125, -1798839.75, -1719839.625, -1650155.25, -1756994.0625, 0.562000036239624, 0.7880000472068787, 0.12000000476837158, 192.0, 0.0, 0.0, 0.0, 0.0, 0.0, 0.0, 0.0, 0.0, 0.0, 1.6077116815351908E9, 2020-12-11 13:34:41.535
94.0, 345397.734375, 325406.15625, -1710863.8125, -1201456.5, -1798252.3125, -1718356.875, -1650605.8125, -1762230.75, 0.562000036239624, 0.7880000472068787, 0.12000000476837158, 192.0, 0.0, 0.0, 0.0, 0.0, 0.0, 0.0, 0.0, 0.0, 0.0, 1.6077116815351927E9, 2020-12-11 13:34:41.535
95.0, 347701.7578125, 328281.4921875, -1708585.5, -1199007.65625, -1795515.9375, -1715750.8125, -1648373.0625, -1761641.25, 0.562000036239624, 0.7880000472068787, 0.12000000476837158, 192.0, 0.0, 0.0, 0.0, 0.0, 0.0, 0.0, 0.0, 0.0, 0.0, 1.6077116815351946E9, 2020-12-11 13:34:41.535
96.0, 349996.125, 327271.359375, -1706909.0625, -1199014.03125, -1795447.3125, -1716589.3125, -1647291.75, -1756020.375, 0.562000036239624, 0.7880000472068787, 0.12000000476837158, 192.0, 0.0, 0.0, 0.0, 0.0, 0.0, 0.0, 0.0, 0.0, 0.0, 1.6077116815351963E9, 2020-12-11 13:34:41.535
97.0, 348203.859375, 324589.6875, -1708799.0625, -1201258.5, -1797986.8125, -1719157.125, -1649273.8125, -1756053.5625, 0.562000036239624, 0.7880000472068787, 0.12000000476837158, 192.0, 0.0, 0.0, 0.0, 0.0, 0.0, 0.0, 0.0, 0.0, 0.0, 1.6077116815351982E9, 2020-12-11 13:34:41.535
98.0, 346133.203125, 325507.0078125, -1710251.625, -1201049.34375, -1797912.75, -1718182.5, -1650119.25, -1761111.1875, 0.562000036239624, 0.7880000472068787, 0.12000000476837158, 192.0, 0.0, 0.0, 0.0, 0.0, 0.0, 0.0, 0.0, 0.0, 0.0, 1.6077116815352E9, 2020-12-11 13:34:41.535
99.0, 347657.765625, 328354.9921875, -1708660.125, -1198881.5625, -1795497.1875, -1715618.25, -1648354.875, -1761860.0625, 0.5640000104904175, 0.7860000133514404, 0.11800000816583633, 192.0, 17.0, 160.0, 24.0, 144.0, 3.0, 176.0, 0.0, 0.0, 0.0, 1.607711681535202E9, 2020-12-11 13:34:41.535
100.0, 350441.90625, 328076.578125, -1706702.625, -1198517.8125, -1795027.6875, -1716006.1875, -1647124.875, -1756649.625, 0.5640000104904175, 0.7860000133514404, 0.11800000816583633, 192.0, 0.0, 0.0, 0.0, 0.0, 0.0, 0.0, 0.0, 0.0, 0.0, 1.6077116815352044E9, 2020-12-11 13:34:41.535
101.0, 349507.9453125, 325310.1328125, -1707860.8125, -1200478.5, -1797156.375, -1718424.9375, -1648509.9375, -1755031.125, 0.5640000104904175, 0.7860000133514404, 0.11800000816583633, 192.0, 0.0, 0.0, 0.0, 0.0, 0.0, 0.0, 0.0, 0.0, 0.0, 1.607711681535206E9, 2020-12-11 13:34:41.535
102.0, 346426.1015625, 324985.0546875, -1710122.4375, -1201300.875, -1798069.3125, -1718516.625, -1650058.125, -1760208.375, 0.5640000104904175, 0.7860000133514404, 0.11800000816583633, 192.0, 0.0, 0.0, 0.0, 0.0, 0.0, 0.0, 0.0, 0.0, 0.0, 1.607711681535208E9, 2020-12-11 13:34:41.535
103.0, 347200.1953125, 327846.9609375, -1709161.125, -1199305.875, -1795900.5, -1715970.75, -1648791.5625, -1762547.25, 0.5640000104904175, 0.7860000133514404, 0.11800000816583633, 192.0, 0.0, 0.0, 0.0, 0.0, 0.0, 0.0, 0.0, 0.0, 0.0, 1.60771168153521E9, 2020-12-11 13:34:41.535
104.0, 350232.6796875, 328354.9921875, -1706687.625, -1198163.8125, -1794638.8125, -1715454.75, -1646914.5, -1757505.1875, 0.5640000104904175, 0.7860000133514404, 0.11800000816583633, 192.0, 0.0, 0.0, 0.0, 0.0, 0.0, 0.0, 0.0, 0.0, 0.0, 1.6077116815352116E9, 2020-12-11 13:34:41.535
105.0, 349680.6796875, 325607.859375, -1707379.125, -1200032.71875, -1796666.0625, -1717955.625, -1648012.125, -1754791.3125, 0.5640000104904175, 0.7860000133514404, 0.11800000816583633, 192.0, 0.0, 0.0, 0.0, 0.0, 0.0, 0.0, 0.0, 0.0, 0.0, 1.6077116815352135E9, 2020-12-11 13:34:41.535
106.0, 346294.6640625, 324445.3828125, -1710193.6875, -1201684.5, -1798417.5, -1719003.1875, -1650186.9375, -1759573.875, 0.5640000104904175, 0.7860000133514404, 0.11800000816583633, 192.0, 0.0, 0.0, 0.0, 0.0, 0.0, 0.0, 0.0, 0.0, 0.0, 1.6077116815352151E9, 2020-12-11 13:34:41.535
107.0, 346719.0, 327534.234375, -1709451.375, -1199585.34375, -1796194.5, -1716156.375, -1649021.625, -1762641.75, 0.5640000104904175, 0.7860000133514404, 0.11800000816583633, 192.0, 0.0, 0.0, 0.0, 0.0, 0.0, 0.0, 0.0, 0.0, 0.0, 1.6077116815352175E9, 2020-12-11 13:34:41.535
108.0, 350218.1953125, 328938.6328125, -1706619.375, -1197825.28125, -1794228.375, -1714841.4375, -1646745.5625, -1758159.1875, 0.5640000104904175, 0.7860000133514404, 0.11800000816583633, 192.0, 0.0, 0.0, 0.0, 0.0, 0.0, 0.0, 0.0, 0.0, 0.0, 1.6077116815352194E9, 2020-12-11 13:34:41.535
109.0, 350318.53125, 326078.3203125, -1707020.25, -1199702.8125, -1796196.75, -1717471.125, -1647757.875, -1754781.75, 0.5640000104904175, 0.7860000133514404, 0.11800000816583633, 192.0, 0.0, 0.0, 0.0, 0.0, 0.0, 0.0, 0.0, 0.0, 0.0, 1.6077116815352213E9, 2020-12-11 13:34:41.535
110.0, 346998.4921875, 324213.65625, -1709807.625, -1201663.03125, -1798348.875, -1719093.375, -1650066.1875, -1758648.9375, 0.562000036239624, 0.7900000214576721, 0.11600000411272049, 192.0, 17.0, 144.0, 24.0, 176.0, 3.0, 160.0, 0.0, 0.0, 0.0, 1.6077116815352232E9, 2020-12-11 13:34:41.535
111.0, 346084.921875, 326418.421875, -1710115.5, -1200464.0625, -1797046.875, -1717092.375, -1649730.9375, -1762992.5625, 0.562000036239624, 0.7900000214576721, 0.11600000411272049, 192.0, 0.0, 0.0, 0.0, 0.0, 0.0, 0.0, 0.0, 0.0, 0.0, 1.607711681535226E9, 2020-12-11 13:34:41.535
112.0, 349083.6328125, 328290.609375, -1707570.0, -1198503.9375, -1794915.1875, -1715388.75, -1647561.0, -1760035.6875, 0.562000036239624, 0.7900000214576721, 0.11600000411272049, 192.0, 0.0, 0.0, 0.0, 0.0, 0.0, 0.0, 0.0, 0.0, 0.0, 1.607711681535228E9, 2020-12-11 13:34:41.535
113.0, 350459.0625, 326490.84375, -1706856.0, -1199248.5, -1795763.8125, -1716945.9375, -1647397.3125, -1755214.125, 0.562000036239624, 0.7900000214576721, 0.11600000411272049, 192.0, 0.0, 0.0, 0.0, 0.0, 0.0, 0.0, 0.0, 0.0, 0.0, 1.6077116815352297E9, 2020-12-11 13:34:41.535
114.0, 347936.71875, 324586.4765625, -1709115.5625, -1201056.84375, -1797850.5, -1718639.4375, -1649412.75, -1757318.625, 0.562000036239624, 0.7900000214576721, 0.11600000411272049, 192.0, 0.0, 0.0, 0.0, 0.0, 0.0, 0.0, 0.0, 0.0, 0.0, 1.6077116815352316E9, 2020-12-11 13:34:41.535
115.0, 346272.140625, 326231.203125, -1710123.5625, -1200486.5625, -1797267.9375, -1717259.25, -1649886.9375, -1762544.625, 0.562000036239624, 0.7900000214576721, 0.11600000411272049, 192.0, 0.0, 0.0, 0.0, 0.0, 0.0, 0.0, 0.0, 0.0, 0.0, 1.6077116815352335E9, 2020-12-11 13:34:41.535
116.0, 349063.2421875, 328807.1953125, -1707578.0625, -1198052.71875, -1794639.9375, -1714875.75, -1647475.6875, -1760787.1875, 0.562000036239624, 0.7900000214576721, 0.11600000411272049, 192.0, 0.0, 0.0, 0.0, 0.0, 0.0, 0.0, 0.0, 0.0, 0.0, 1.6077116815352356E9, 2020-12-11 13:34:41.535
117.0, 350832.421875, 327164.0859375, -1706594.25, -1198637.4375, -1795268.0625, -1716347.25, -1647050.25, -1755640.5, 0.562000036239624, 0.7900000214576721, 0.11600000411272049, 192.0, 0.0, 0.0, 0.0, 0.0, 0.0, 0.0, 0.0, 0.0, 0.0, 1.6077116815352376E9, 2020-12-11 13:34:41.535
118.0, 348649.125, 324588.09375, -1708728.75, -1200907.6875, -1797752.8125, -1718738.25, -1649253.375, -1756715.0625, 0.562000036239624, 0.7900000214576721, 0.11600000411272049, 192.0, 0.0, 0.0, 0.0, 0.0, 0.0, 0.0, 0.0, 0.0, 0.0, 1.6077116815352397E9, 2020-12-11 13:34:41.535
119.0, 346287.1640625, 325622.8828125, -1710245.8125, -1200722.625, -1797600.0, -1717628.8125, -1650046.875, -1761874.125, 0.562000036239624, 0.7900000214576721, 0.11600000411272049, 192.0, 0.0, 0.0, 0.0, 0.0, 0.0, 0.0, 0.0, 0.0, 0.0, 1.6077116815352414E9, 2020-12-11 13:34:41.535
120.0, 348477.4453125, 328560.4453125, -1708046.4375, -1198209.375, -1794835.6875, -1714847.4375, -1647768.0, -1761445.5, 0.5660000443458557, 0.7920000553131104, 0.11400000751018524, 192.0, 17.0, 176.0, 24.0, 192.0, 3.0, 144.0, 0.0, 0.0, 0.0, 1.6077116815352433E9, 2020-12-11 13:34:41.535
121.0, 350699.390625, 327462.3515625, -1706459.0625, -1198303.78125, -1794837.9375, -1715749.6875, -1646788.5, -1756130.4375, 0.5660000443458557, 0.7920000553131104, 0.11400000751018524, 192.0, 0.0, 0.0, 0.0, 0.0, 0.0, 0.0, 0.0, 0.0, 0.0, 1.6077116820148213E9, 2020-12-11 13:34:42.014
122.0, 348947.90625, 324587.5546875, -1708265.8125, -1200601.875, -1797324.1875, -1718302.125, -1648624.6875, -1755662.0625, 0.5660000443458557, 0.7920000553131104, 0.11400000751018524, 192.0, 0.0, 0.0, 0.0, 0.0, 0.0, 0.0, 0.0, 0.0, 0.0, 1.6077116820149777E9, 2020-12-11 13:34:42.014
123.0, 346190.6015625, 324977.015625, -1710324.75, -1201065.9375, -1797867.1875, -1717947.5625, -1649994.75, -1761195.0, 0.5660000443458557, 0.7920000553131104, 0.11400000751018524, 192.0, 0.0, 0.0, 0.0, 0.0, 0.0, 0.0, 0.0, 0.0, 0.0, 1.6077116820150435E9, 2020-12-11 13:34:42.015
124.0, 347557.9921875, 327884.53125, -1708771.6875, -1198808.625, -1795364.0625, -1715210.0625, -1648380.1875, -1762494.1875, 0.5660000443458557, 0.7920000553131104, 0.11400000751018524, 192.0, 0.0, 0.0, 0.0, 0.0, 0.0, 0.0, 0.0, 0.0, 0.0, 1.6077116820150456E9, 2020-12-11 13:34:42.015
125.0, 350673.65625, 327905.4375, -1706395.6875, -1197987.84375, -1794461.8125, -1715145.1875, -1646758.5, -1756986.5625, 0.5660000443458557, 0.7920000553131104, 0.11400000751018524, 192.0, 0.0, 0.0, 0.0, 0.0, 0.0, 0.0, 0.0, 0.0, 0.0, 1.6077116820150473E9, 2020-12-11 13:34:42.015
126.0, 349361.5078125, 324647.0859375, -1708012.125, -1200488.15625, -1797150.9375, -1718134.125, -1648650.5625, -1755538.6875, 0.5660000443458557, 0.7920000553131104, 0.11400000751018524, 192.0, 0.0, 0.0, 0.0, 0.0, 0.0, 0.0, 0.0, 0.0, 0.0, 1.6077116820150492E9, 2020-12-11 13:34:42.015
127.0, 346285.0078125, 324350.4375, -1710421.3125, -1201505.8125, -1798273.6875, -1718422.875, -1650448.125, -1760719.6875, 0.5660000443458557, 0.7920000553131104, 0.11400000751018524, 192.0, 0.0, 0.0, 0.0, 0.0, 0.0, 0.0, 0.0, 0.0, 0.0, 1.6077116820150511E9, 2020-12-11 13:34:42.015
128.0, 347250.0703125, 327591.09375, -1709150.4375, -1199210.90625, -1795764.75, -1715482.5, -1648845.75, -1762978.125, 0.5660000443458557, 0.7920000553131104, 0.11400000751018524, 192.0, 0.0, 0.0, 0.0, 0.0, 0.0, 0.0, 0.0, 0.0, 0.0, 1.607711682015053E9, 2020-12-11 13:34:42.015
129.0, 350567.9765625, 328432.7578125, -1706440.3125, -1197807.5625, -1794157.125, -1714676.25, -1646719.3125, -1757856.1875, 0.5660000443458557, 0.7920000553131104, 0.11400000751018524, 192.0, 0.0, 0.0, 0.0, 0.0, 0.0, 0.0, 0.0, 0.0, 0.0, 1.6077116820150547E9, 2020-12-11 13:34:42.015
130.0, 350349.09375, 325760.203125, -1706934.375, -1199506.5, -1796015.8125, -1717065.5625, -1647644.0625, -1754767.875, 0.5640000104904175, 0.7820000648498535, 0.11000000685453415, 192.0, 17.0, 160.0, 24.0, 112.0, 3.0, 112.0, 0.0, 0.0, 0.0, 1.6077116820150568E9, 2020-12-11 13:34:42.015
131.0, 346878.328125, 324290.3671875, -1709907.375, -1201367.4375, -1798051.6875, -1718421.1875, -1650045.1875, -1759524.375, 0.5640000104904175, 0.7820000648498535, 0.11000000685453415, 192.0, 0.0, 0.0, 0.0, 0.0, 0.0, 0.0, 0.0, 0.0, 0.0, 1.6077116820150592E9, 2020-12-11 13:34:42.015
132.0, 346662.6796875, 326902.2890625, -1709678.8125, -1199809.03125, -1796318.4375, -1716105.375, -1649267.4375, -1763246.8125, 0.5640000104904175, 0.7820000648498535, 0.11000000685453415, 192.0, 0.0, 0.0, 0.0, 0.0, 0.0, 0.0, 0.0, 0.0, 0.0, 1.607711682015061E9, 2020-12-11 13:34:42.015
133.0, 349944.609375, 328525.5703125, -1706812.5, -1197942.75, -1794237.0, -1714609.3125, -1646908.125, -1759041.1875, 0.5640000104904175, 0.7820000648498535, 0.11000000685453415, 192.0, 0.0, 0.0, 0.0, 0.0, 0.0, 0.0, 0.0, 0.0, 0.0, 1.6077116820150628E9, 2020-12-11 13:34:42.015
134.0, 350688.65625, 326252.1328125, -1706661.375, -1199258.15625, -1795635.5625, -1716653.625, -1647282.0, -1754906.8125, 0.5640000104904175, 0.7820000648498535, 0.11000000685453415, 192.0, 0.0, 0.0, 0.0, 0.0, 0.0, 0.0, 0.0, 0.0, 0.0, 1.6077116820150688E9, 2020-12-11 13:34:42.015
135.0, 347406.703125, 324168.046875, -1709622.375, -1201437.1875, -1798050.0, -1718532.1875, -1649813.4375, -1758556.6875, 0.5640000104904175, 0.7820000648498535, 0.11000000685453415, 192.0, 0.0, 0.0, 0.0, 0.0, 0.0, 0.0, 0.0, 0.0, 0.0, 1.607711682015071E9, 2020-12-11 13:34:42.015
136.0, 346545.7265625, 326489.2265625, -1709856.9375, -1200082.125, -1796629.125, -1716357.5625, -1649429.4375, -1762953.9375, 0.5640000104904175, 0.7820000648498535, 0.11000000685453415, 192.0, 0.0, 0.0, 0.0, 0.0, 0.0, 0.0, 0.0, 0.0, 0.0, 1.6077116820150726E9, 2020-12-11 13:34:42.015
137.0, 349513.8515625, 328556.15625, -1707252.375, -1198027.03125, -1794305.25, -1714503.5625, -1647186.0, -1760233.6875, 0.5640000104904175, 0.7820000648498535, 0.11000000685453415, 192.0, 0.0, 0.0, 0.0, 0.0, 0.0, 0.0, 0.0, 0.0, 0.0, 1.6077116820150745E9, 2020-12-11 13:34:42.015
138.0, 350718.1640625, 326565.9375, -1706687.0625, -1199031.75, -1795354.5, -1716305.4375, -1647199.875, -1755510.75, 0.5640000104904175, 0.7820000648498535, 0.11000000685453415, 192.0, 0.0, 0.0, 0.0, 0.0, 0.0, 0.0, 0.0, 0.0, 0.0, 1.6077116820150766E9, 2020-12-11 13:34:42.015
139.0, 348232.828125, 324413.203125, -1708940.625, -1200911.4375, -1797504.5625, -1718067.1875, -1649119.3125, -1757181.75, 0.5640000104904175, 0.7820000648498535, 0.11000000685453415, 192.0, 0.0, 0.0, 0.0, 0.0, 0.0, 0.0, 0.0, 0.0, 0.0, 1.6077116820150783E9, 2020-12-11 13:34:42.015
140.0, 346991.5078125, 326432.3671875, -1709495.8125, -1199868.09375, -1796386.5, -1716153.1875, -1648994.8125, -1761895.5, 0.5640000104904175, 0.7900000214576721, 0.11800000816583633, 192.0, 17.0, 160.0, 24.0, 176.0, 3.0, 176.0, 0.0, 0.0, 0.0, 1.6077116820150805E9, 2020-12-11 13:34:42.015
141.0, 349179.65625, 328612.4765625, -1707439.6875, -1197942.75, -1794120.5625, -1714189.125, -1646996.0625, -1760860.6875, 0.5640000104904175, 0.7900000214576721, 0.11800000816583633, 192.0, 0.0, 0.0, 0.0, 0.0, 0.0, 0.0, 0.0, 0.0, 0.0, 1.6077116820150821E9, 2020-12-11 13:34:42.015
142.0, 350630.71875, 326806.8046875, -1706690.8125, -1198824.1875, -1795008.375, -1715929.5, -1646877.0, -1755979.125, 0.5640000104904175, 0.7900000214576721, 0.11800000816583633, 192.0, 0.0, 0.0, 0.0, 0.0, 0.0, 0.0, 0.0, 0.0, 0.0, 1.607711682015084E9, 2020-12-11 13:34:42.015
143.0, 348370.171875, 324195.421875, -1708882.125, -1201169.4375, -1797614.4375, -1718399.8125, -1649073.75, -1756773.0, 0.5640000104904175, 0.7900000214576721, 0.11800000816583633, 192.0, 0.0, 0.0, 0.0, 0.0, 0.0, 0.0, 0.0, 0.0, 0.0, 1.607711682015086E9, 2020-12-11 13:34:42.015
144.0, 346579.5234375, 325611.09375, -1710050.0625, -1200697.40625, -1797148.3125, -1717067.25, -1649492.625, -1761814.5, 0.5640000104904175, 0.7900000214576721, 0.11800000816583633, 192.0, 0.0, 0.0, 0.0, 0.0, 0.0, 0.0, 0.0, 0.0, 0.0, 1.6077116820150876E9, 2020-12-11 13:34:42.015
145.0, 348269.3203125, 328317.421875, -1708230.375, -1198537.6875, -1794703.6875, -1714599.0, -1647633.375, -1762022.0625, 0.5640000104904175, 0.7900000214576721, 0.11800000816583633, 192.0, 0.0, 0.0, 0.0, 0.0, 0.0, 0.0, 0.0, 0.0, 0.0, 1.6077116820150895E9, 2020-12-11 13:34:42.015
146.0, 350846.90625, 327730.5703125, -1706312.0625, -1198272.1875, -1794330.375, -1715085.5625, -1646401.6875, -1756443.1875, 0.5640000104904175, 0.7900000214576721, 0.11800000816583633, 192.0, 0.0, 0.0, 0.0, 0.0, 0.0, 0.0, 0.0, 0.0, 0.0, 1.6077116820150912E9, 2020-12-11 13:34:42.015
147.0, 349390.4765625, 325022.0625, -1707796.5, -1200394.875, -1796662.3125, -1717556.4375, -1648086.75, -1755614.25, 0.5640000104904175, 0.7900000214576721, 0.11800000816583633, 192.0, 0.0, 0.0, 0.0, 0.0, 0.0, 0.0, 0.0, 0.0, 0.0, 1.607711682015093E9, 2020-12-11 13:34:42.015
148.0, 346533.9140625, 325223.765625, -1709958.1875, -1201020.375, -1797360.75, -1717405.125, -1649540.4375, -1761053.25, 0.5640000104904175, 0.7900000214576721, 0.11800000816583633, 192.0, 0.0, 0.0, 0.0, 0.0, 0.0, 0.0, 0.0, 0.0, 0.0, 1.607711682015095E9, 2020-12-11 13:34:42.015
149.0, 347784.9140625, 328043.3203125, -1708595.25, -1198849.40625, -1795032.0, -1714845.75, -1648036.3125, -1762666.875, 0.5640000104904175, 0.7900000214576721, 0.11800000816583633, 192.0, 0.0, 0.0, 0.0, 0.0, 0.0, 0.0, 0.0, 0.0, 0.0, 1.607711682015097E9, 2020-12-11 13:34:42.015
150.0, 350392.0078125, 327592.171875, -1706710.125, -1198482.9375, -1794537.0, -1715172.9375, -1646789.625, -1757757.9375, 0.562000036239624, 0.7980000376701355, 0.11800000816583633, 192.0, 17.0, 144.0, 24.0, 240.0, 3.0, 176.0, 0.0, 0.0, 0.0, 1.6077116820150988E9, 2020-12-11 13:34:42.015
151.0, 349667.8125, 324956.625, -1707693.375, -1200346.59375, -1796595.75, -1717516.125, -1648038.375, -1755470.0625, 0.562000036239624, 0.7980000376701355, 0.11800000816583633, 192.0, 0.0, 0.0, 0.0, 0.0, 0.0, 0.0, 0.0, 0.0, 0.0, 1.6077116820151005E9, 2020-12-11 13:34:42.015
152.0, 346515.140625, 324356.8828125, -1710252.1875, -1201522.96875, -1797930.0, -1718018.8125, -1649997.9375, -1760428.875, 0.562000036239624, 0.7980000376701355, 0.11800000816583633, 192.0, 0.0, 0.0, 0.0, 0.0, 0.0, 0.0, 0.0, 0.0, 0.0, 1.6077116820151024E9, 2020-12-11 13:34:42.015
153.0, 347125.078125, 327316.4296875, -1709370.375, -1199488.78125, -1795713.9375, -1715287.875, -1648754.0625, -1763222.625, 0.562000036239624, 0.7980000376701355, 0.11800000816583633, 192.0, 0.0, 0.0, 0.0, 0.0, 0.0, 0.0, 0.0, 0.0, 0.0, 1.6077116820151043E9, 2020-12-11 13:34:42.015
154.0, 350775.5625, 328646.2734375, -1706280.375, -1197671.90625, -1793680.3125, -1713997.125, -1646288.0625, -1758066.9375, 0.562000036239624, 0.7980000376701355, 0.11800000816583633, 192.0, 0.0, 0.0, 0.0, 0.0, 0.0, 0.0, 0.0, 0.0, 0.0, 1.607711682015106E9, 2020-12-11 13:34:42.015
155.0, 350352.328125, 325694.2265625, -1706970.375, -1199675.4375, -1795763.8125, -1716651.0, -1647300.1875, -1754885.8125, 0.562000036239624, 0.7980000376701355, 0.11800000816583633, 192.0, 0.0, 0.0, 0.0, 0.0, 0.0, 0.0, 0.0, 0.0, 0.0, 1.607711682015108E9, 2020-12-11 13:34:42.015
156.0, 347180.34375, 324512.4375, -1709663.8125, -1201300.875, -1797530.25, -1717815.0, -1649398.875, -1759256.25, 0.562000036239624, 0.7980000376701355, 0.11800000816583633, 192.0, 0.0, 0.0, 0.0, 0.0, 0.0, 0.0, 0.0, 0.0, 0.0, 1.6077116820151098E9, 2020-12-11 13:34:42.015
157.0, 346688.4140625, 326867.9765625, -1709757.1875, -1199980.21875, -1796046.9375, -1715749.125, -1648884.9375, -1763286.0, 0.562000036239624, 0.7980000376701355, 0.11800000816583633, 192.0, 0.0, 0.0, 0.0, 0.0, 0.0, 0.0, 0.0, 0.0, 0.0, 1.6077116820151129E9, 2020-12-11 13:34:42.015
158.0, 350198.3671875, 328606.03125, -1706895.75, -1197952.96875, -1793849.25, -1714098.5625, -1646408.625, -1759339.3125, 0.562000036239624, 0.7980000376701355, 0.11800000816583633, 192.0, 0.0, 0.0, 0.0, 0.0, 0.0, 0.0, 0.0, 0.0, 0.0, 1.6077116820151148E9, 2020-12-11 13:34:42.015
159.0, 350852.2734375, 326368.0078125, -1706676.9375, -1199212.03125, -1795234.3125, -1716121.5, -1646658.75, -1754928.1875, 0.562000036239624, 0.7980000376701355, 0.11800000816583633, 192.0, 0.0, 0.0, 0.0, 0.0, 0.0, 0.0, 0.0, 0.0, 0.0, 1.6077116820151165E9, 2020-12-11 13:34:42.015
160.0, 347622.375, 324430.3828125, -1709348.8125, -1201220.4375, -1797499.125, -1717914.75, -1649046.375, -1758099.1875, 0.5560000538825989, 0.7940000295639038, 0.12200000882148743, 192.0, 17.0, 96.0, 24.0, 208.0, 3.0, 208.0, 0.0, 0.0, 0.0, 1.6077116820151184E9, 2020-12-11 13:34:42.015
161.0, 346538.2265625, 326503.1953125, -1709938.5, -1200214.59375, -1796445.0, -1716085.5, -1649082.375, -1762940.4375, 0.5560000538825989, 0.7940000295639038, 0.12200000882148743, 192.0, 0.0, 0.0, 0.0, 0.0, 0.0, 0.0, 0.0, 0.0, 0.0, 1.6077116820151207E9, 2020-12-11 13:34:42.015
162.0, 349611.4921875, 328837.78125, -1707246.5625, -1198001.25, -1793945.25, -1713964.5, -1646705.8125, -1760380.125, 0.5560000538825989, 0.7940000295639038, 0.12200000882148743, 192.0, 0.0, 0.0, 0.0, 0.0, 0.0, 0.0, 0.0, 0.0, 0.0, 1.6077116820151224E9, 2020-12-11 13:34:42.015
163.0, 350453.6953125, 326303.625, -1706931.1875, -1199357.34375, -1795272.9375, -1716056.0625, -1647012.1875, -1755800.4375, 0.5560000538825989, 0.7940000295639038, 0.12200000882148743, 192.0, 0.0, 0.0, 0.0, 0.0, 0.0, 0.0, 0.0, 0.0, 0.0, 1.6077116820151243E9, 2020-12-11 13:34:42.015
164.0, 347592.328125, 323729.7890625, -1709505.5625, -1201719.84375, -1797881.0625, -1718371.3125, -1649389.125, -1757819.625, 0.5560000538825989, 0.7940000295639038, 0.12200000882148743, 192.0, 0.0, 0.0, 0.0, 0.0, 0.0, 0.0, 0.0, 0.0, 0.0, 1.6077116820151265E9, 2020-12-11 13:34:42.015
165.0, 346041.46875, 325552.078125, -1710330.0, -1200840.65625, -1797071.625, -1716662.8125, -1649615.625, -1762860.0, 0.5560000538825989, 0.7940000295639038, 0.12200000882148743, 192.0, 0.0, 0.0, 0.0, 0.0, 0.0, 0.0, 0.0, 0.0, 0.0, 1.607711682015128E9, 2020-12-11 13:34:42.015
166.0, 348602.4375, 328241.25, -1707954.1875, -1198446.46875, -1794459.1875, -1714199.4375, -1647439.125, -1761835.5, 0.5560000538825989, 0.7940000295639038, 0.12200000882148743, 192.0, 0.0, 0.0, 0.0, 0.0, 0.0, 0.0, 0.0, 0.0, 0.0, 1.60771168201513E9, 2020-12-11 13:34:42.015
167.0, 350614.1015625, 326850.796875, -1706596.875, -1198830.09375, -1794765.9375, -1715375.8125, -1646771.25, -1756513.3125, 0.5560000538825989, 0.7940000295639038, 0.12200000882148743, 192.0, 0.0, 0.0, 0.0, 0.0, 0.0, 0.0, 0.0, 0.0, 0.0, 1.6077116820151317E9, 2020-12-11 13:34:42.015
168.0, 348177.046875, 323734.078125, -1708908.9375, -1201413.5625, -1797597.375, -1718143.3125, -1649040.0, -1756985.4375, 0.5560000538825989, 0.7940000295639038, 0.12200000882148743, 192.0, 0.0, 0.0, 0.0, 0.0, 0.0, 0.0, 0.0, 0.0, 0.0, 1.6077116820151336E9, 2020-12-11 13:34:42.015
169.0, 346238.8828125, 325030.640625, -1710260.8125, -1201158.75, -1797355.875, -1717019.4375, -1649736.1875, -1762173.9375, 0.5560000538825989, 0.7940000295639038, 0.12200000882148743, 192.0, 0.0, 0.0, 0.0, 0.0, 0.0, 0.0, 0.0, 0.0, 0.0, 1.6077116820151353E9, 2020-12-11 13:34:42.015
170.0, 348348.703125, 328255.1953125, -1708017.375, -1198462.59375, -1794370.6875, -1713981.0, -1647405.375, -1762345.5, 0.5560000538825989, 0.7940000295639038, 0.12200000882148743, 192.0, 0.0, 0.0, 0.0, 0.0, 0.0, 0.0, 0.0, 0.0, 0.0, 1.6077116820151372E9, 2020-12-11 13:34:42.015
171.0, 350889.3046875, 327606.65625, -1706049.75, -1198202.4375, -1793887.875, -1714447.6875, -1646045.4375, -1756622.8125, 0.5580000281333923, 0.7900000214576721, 0.12000000476837158, 192.0, 17.0, 112.0, 24.0, 176.0, 3.0, 192.0, 0.0, 0.0, 0.0, 1.607711682015139E9, 2020-12-11 13:34:42.015
172.0, 349528.875, 324710.390625, -1707621.0, -1200502.6875, -1796333.4375, -1717153.5, -1647871.125, -1755650.8125, 0.5580000281333923, 0.7900000214576721, 0.12000000476837158, 192.0, 0.0, 0.0, 0.0, 0.0, 0.0, 0.0, 0.0, 0.0, 0.0, 1.6077116820151408E9, 2020-12-11 13:34:42.015
173.0, 346635.84375, 324864.890625, -1709804.25, -1201166.25, -1797161.8125, -1717121.4375, -1649499.1875, -1761079.125, 0.5580000281333923, 0.7900000214576721, 0.12000000476837158, 192.0, 0.0, 0.0, 0.0, 0.0, 0.0, 0.0, 0.0, 0.0, 0.0, 1.607711682015143E9, 2020-12-11 13:34:42.015
174.0, 347848.1953125, 328096.9453125, -1708414.875, -1198819.875, -1794638.25, -1714225.125, -1647734.25, -1762685.625, 0.5580000281333923, 0.7900000214576721, 0.12000000476837158, 192.0, 0.0, 0.0, 0.0, 0.0, 0.0, 0.0, 0.0, 0.0, 0.0, 1.6077116820151443E9, 2020-12-11 13:34:42.015
175.0, 350991.75, 328349.0859375, -1705965.0, -1197781.3125, -1793490.9375, -1713836.25, -1645828.3125, -1757101.3125, 0.5580000281333923, 0.7900000214576721, 0.12000000476837158, 192.0, 0.0, 0.0, 0.0, 0.0, 0.0, 0.0, 0.0, 0.0, 0.0, 1.6077116820151465E9, 2020-12-11 13:34:42.015
176.0, 349973.578125, 325187.296875, -1707221.4375, -1200034.40625, -1795947.1875, -1716692.25, -1647392.4375, -1754939.4375, 0.5580000281333923, 0.7900000214576721, 0.12000000476837158, 192.0, 0.0, 0.0, 0.0, 0.0, 0.0, 0.0, 0.0, 0.0, 0.0, 1.6077116820151482E9, 2020-12-11 13:34:42.015
177.0, 346631.5546875, 324337.5703125, -1709876.25, -1201404.46875, -1797468.0, -1717447.5, -1649389.125, -1759902.0, 0.5580000281333923, 0.7900000214576721, 0.12000000476837158, 192.0, 0.0, 0.0, 0.0, 0.0, 0.0, 0.0, 0.0, 0.0, 0.0, 1.6077116820152533E9, 2020-12-11 13:34:42.015
178.0, 347304.2578125, 327498.28125, -1708911.1875, -1199123.4375, -1795106.625, -1714517.4375, -1647992.25, -1762645.5, 0.5580000281333923, 0.7900000214576721, 0.12000000476837158, 192.0, 0.0, 0.0, 0.0, 0.0, 0.0, 0.0, 0.0, 0.0, 0.0, 1.6077116820152552E9, 2020-12-11 13:34:42.015
179.0, 350467.640625, 328441.359375, -1706284.125, -1197632.71875, -1793491.3125, -1713614.0625, -1645991.8125, -1757959.6875, 0.5580000281333923, 0.7900000214576721, 0.12000000476837158, 192.0, 0.0, 0.0, 0.0, 0.0, 0.0, 0.0, 0.0, 0.0, 0.0, 1.607711682015257E9, 2020-12-11 13:34:42.015
180.0, 350717.0859375, 326068.6640625, -1706489.625, -1199129.34375, -1795127.0625, -1715805.0, -1646619.5625, -1754300.625, 0.5580000281333923, 0.7900000214576721, 0.12000000476837158, 192.0, 0.0, 0.0, 0.0, 0.0, 0.0, 0.0, 0.0, 0.0, 0.0, 1.6077116820152588E9, 2020-12-11 13:34:42.015
181.0, 347744.671875, 324840.2109375, -1709025.375, -1200731.15625, -1796880.1875, -1716990.5625, -1648617.1875, -1757940.375, 0.5560000538825989, 0.7980000376701355, 0.12000000476837158, 192.0, 17.0, 96.0, 24.0, 240.0, 3.0, 192.0, 0.0, 0.0, 0.0, 1.6077116820152624E9, 2020-12-11 13:34:42.015
182.0, 347142.7734375, 327109.359375, -1709217.9375, -1199473.21875, -1795459.6875, -1714958.4375, -1648174.6875, -1761915.9375, 0.5560000538825989, 0.7980000376701355, 0.12000000476837158, 192.0, 0.0, 0.0, 0.0, 0.0, 0.0, 0.0, 0.0, 0.0, 0.0, 1.6077116820152643E9, 2020-12-11 13:34:42.015
183.0, 350295.984375, 328993.875, -1706348.625, -1197458.34375, -1793167.875, -1713315.375, -1645781.0625, -1758172.6875, 0.5560000538825989, 0.7980000376701355, 0.12000000476837158, 192.0, 0.0, 0.0, 0.0, 0.0, 0.0, 0.0, 0.0, 0.0, 0.0, 1.607711682015266E9, 2020-12-11 13:34:42.015
184.0, 350701.546875, 326514.4453125, -1706284.6875, -1198930.40625, -1794720.375, -1715620.5, -1646252.0625, -1753804.3125, 0.5560000538825989, 0.7980000376701355, 0.12000000476837158, 192.0, 0.0, 0.0, 0.0, 0.0, 0.0, 0.0, 0.0, 0.0, 0.0, 1.607711682015268E9, 2020-12-11 13:34:42.015
185.0, 347556.9140625, 324294.1171875, -1709053.875, -1201105.125, -1797139.125, -1717624.125, -1648684.3125, -1756630.3125, 0.5560000538825989, 0.7980000376701355, 0.12000000476837158, 192.0, 0.0, 0.0, 0.0, 0.0, 0.0, 0.0, 0.0, 0.0, 0.0, 1.6077116820152698E9, 2020-12-11 13:34:42.015
186.0, 346441.6640625, 326521.96875, -1709559.1875, -1200033.28125, -1795994.4375, -1715763.5625, -1648625.8125, -1761229.3125, 0.5560000538825989, 0.7980000376701355, 0.12000000476837158, 192.0, 0.0, 0.0, 0.0, 0.0, 0.0, 0.0, 0.0, 0.0, 0.0, 1.6077116820152717E9, 2020-12-11 13:34:42.015
187.0, 349050.9140625, 328626.9609375, -1707209.625, -1198100.53125, -1793796.5625, -1713970.875, -1646547.1875, -1759127.4375, 0.5560000538825989, 0.7980000376701355, 0.12000000476837158, 192.0, 0.0, 0.0, 0.0, 0.0, 0.0, 0.0, 0.0, 0.0, 0.0, 1.6077116820152736E9, 2020-12-11 13:34:42.015
188.0, 350312.0859375, 326587.9453125, -1706652.1875, -1199221.125, -1794972.0, -1716008.25, -1646731.6875, -1754443.3125, 0.5560000538825989, 0.7980000376701355, 0.12000000476837158, 192.0, 0.0, 0.0, 0.0, 0.0, 0.0, 0.0, 0.0, 0.0, 0.0, 1.6077116820152752E9, 2020-12-11 13:34:42.015
189.0, 348115.359375, 324445.3828125, -1708811.8125, -1201199.53125, -1797263.0625, -1718085.9375, -1648826.4375, -1755650.25, 0.5560000538825989, 0.7980000376701355, 0.12000000476837158, 192.0, 0.0, 0.0, 0.0, 0.0, 0.0, 0.0, 0.0, 0.0, 0.0, 1.6077116820152771E9, 2020-12-11 13:34:42.015
190.0, 346162.171875, 325965.140625, -1710010.875, -1200791.8125, -1796869.3125, -1716925.5, -1649377.875, -1760780.25, 0.5560000538825989, 0.7980000376701355, 0.12000000476837158, 192.0, 0.0, 0.0, 0.0, 0.0, 0.0, 0.0, 0.0, 0.0, 0.0, 1.607711682015279E9, 2020-12-11 13:34:42.015
191.0, 348260.203125, 328415.6015625, -1707990.5625, -1198742.625, -1794518.625, -1714730.4375, -1647459.5625, -1760200.875, 0.5560000538825989, 0.7980000376701355, 0.12600000202655792, 192.0, 17.0, 96.0, 24.0, 240.0, 3.0, 240.0, 0.0, 0.0, 0.0, 1.6077116820152807E9, 2020-12-11 13:34:42.015
192.0, 350688.140625, 327499.359375, -1706237.4375, -1198686.84375, -1794450.0, -1715517.375, -1646452.6875, -1754392.3125, 0.5560000538825989, 0.7980000376701355, 0.12600000202655792, 192.0, 0.0, 0.0, 0.0, 0.0, 0.0, 0.0, 0.0, 0.0, 0.0, 1.6077116820152826E9, 2020-12-11 13:34:42.015
193.0, 348886.7578125, 325010.2734375, -1707900.5625, -1200740.34375, -1796727.75, -1717840.125, -1648072.6875, -1754093.4375, 0.5560000538825989, 0.7980000376701355, 0.12600000202655792, 192.0, 0.0, 0.0, 0.0, 0.0, 0.0, 0.0, 0.0, 0.0, 0.0, 1.6077116820152843E9, 2020-12-11 13:34:42.015
194.0, 346421.2734375, 325863.2109375, -1709578.5, -1200842.8125, -1796860.875, -1717183.125, -1649093.0625, -1759396.3125, 0.5560000538825989, 0.7980000376701355, 0.12600000202655792, 192.0, 0.0, 0.0, 0.0, 0.0, 0.0, 0.0, 0.0, 0.0, 0.0, 1.6077116820152864E9, 2020-12-11 13:34:42.015
195.0, 348194.7421875, 329018.5546875, -1707718.6875, -1198375.6875, -1794162.0, -1714362.9375, -1647085.125, -1759961.625, 0.5560000538825989, 0.7980000376701355, 0.12600000202655792, 192.0, 0.0, 0.0, 0.0, 0.0, 0.0, 0.0, 0.0, 0.0, 0.0, 1.607711682015288E9, 2020-12-11 13:34:42.015
196.0, 350801.3203125, 328409.15625, -1705931.25, -1198165.96875, -1793872.3125, -1714919.25, -1645905.0, -1754568.1875, 0.5560000538825989, 0.7980000376701355, 0.12600000202655792, 192.0, 0.0, 0.0, 0.0, 0.0, 0.0, 0.0, 0.0, 0.0, 0.0, 1.60771168201529E9, 2020-12-11 13:34:42.015
197.0, 349386.1875, 325323.5390625, -1707602.25, -1200547.21875, -1796559.375, -1717803.1875, -1647889.3125, -1753396.125, 0.5560000538825989, 0.7980000376701355, 0.12600000202655792, 192.0, 0.0, 0.0, 0.0, 0.0, 0.0, 0.0, 0.0, 0.0, 0.0, 1.6077116820152917E9, 2020-12-11 13:34:42.015
198.0, 346427.1796875, 325372.8984375, -1709904.5625, -1201308.375, -1797512.625, -1717923.375, -1649617.125, -1758723.5625, 0.5560000538825989, 0.7980000376701355, 0.12600000202655792, 192.0, 0.0, 0.0, 0.0, 0.0, 0.0, 0.0, 0.0, 0.0, 0.0, 1.6077116820152936E9, 2020-12-11 13:34:42.015
199.0, 347267.765625, 328392.5390625, -1708649.8125, -1199085.9375, -1795061.0625, -1715165.0625, -1647994.5, -1760678.25, 0.5560000538825989, 0.7980000376701355, 0.12600000202655792, 192.0, 0.0, 0.0, 0.0, 0.0, 0.0, 0.0, 0.0, 0.0, 0.0, 1.6077116820152955E9, 2020-12-11 13:34:42.015
200.0, 350293.3125, 328731.0234375, -1706138.25, -1198019.53125, -1793758.5, -1714655.8125, -1646065.3125, -1755346.6875, 0.5560000538825989, 0.7980000376701355, 0.12600000202655792, 192.0, 0.0, 0.0, 0.0, 0.0, 0.0, 0.0, 0.0, 0.0, 0.0, 1.6077116820152972E9, 2020-12-11 13:34:42.015
201.0, 349706.9765625, 325805.8125, -1707039.0, -1200144.375, -1795995.5625, -1717355.8125, -1647393.0, -1752838.3125, 0.5580000281333923, 0.796000063419342, 0.12600000202655792, 192.0, 17.0, 112.0, 24.0, 224.0, 3.0, 240.0, 0.0, 0.0, 0.0, 1.607711682015299E9, 2020-12-11 13:34:42.015
202.0, 346432.0078125, 324842.3671875, -1709768.4375, -1201651.6875, -1797730.3125, -1718320.3125, -1649602.125, -1757651.625, 0.5580000281333923, 0.796000063419342, 0.12600000202655792, 192.0, 0.0, 0.0, 0.0, 0.0, 0.0, 0.0, 0.0, 0.0, 0.0, 1.6077116820153008E9, 2020-12-11 13:34:42.015
203.0, 346982.9296875, 328088.3671875, -1708844.0625, -1199450.71875, -1795377.5625, -1715456.8125, -1648309.3125, -1760633.8125, 0.5580000281333923, 0.796000063419342, 0.12600000202655792, 192.0, 0.0, 0.0, 0.0, 0.0, 0.0, 0.0, 0.0, 0.0, 0.0, 1.607711682015303E9, 2020-12-11 13:34:42.015
204.0, 350247.703125, 329284.640625, -1706143.125, -1197836.53125, -1793592.1875, -1714347.9375, -1646244.5625, -1756261.875, 0.5580000281333923, 0.796000063419342, 0.12600000202655792, 192.0, 0.0, 0.0, 0.0, 0.0, 0.0, 0.0, 0.0, 0.0, 0.0, 1.6077116820153055E9, 2020-12-11 13:34:42.015
205.0, 350338.8984375, 326598.140625, -1706521.3125, -1199551.59375, -1795521.375, -1716862.875, -1647106.6875, -1752651.5625, 0.5580000281333923, 0.796000063419342, 0.12600000202655792, 192.0, 0.0, 0.0, 0.0, 0.0, 0.0, 0.0, 0.0, 0.0, 0.0, 1.6077116820153074E9, 2020-12-11 13:34:42.015
206.0, 346987.21875, 325005.984375, -1709490.5625, -1201617.9375, -1797833.4375, -1718598.1875, -1649577.9375, -1756707.5625, 0.5580000281333923, 0.796000063419342, 0.12600000202655792, 192.0, 0.0, 0.0, 0.0, 0.0, 0.0, 0.0, 0.0, 0.0, 0.0, 1.607711682015309E9, 2020-12-11 13:34:42.015
207.0, 346388.015625, 327433.921875, -1709478.75, -1200127.6875, -1796234.8125, -1716308.625, -1649015.25, -1760807.0625, 0.5580000281333923, 0.796000063419342, 0.12600000202655792, 192.0, 0.0, 0.0, 0.0, 0.0, 0.0, 0.0, 0.0, 0.0, 0.0, 1.607711682015311E9, 2020-12-11 13:34:42.015
208.0, 349513.3125, 329259.421875, -1706808.375, -1198128.375, -1794041.25, -1714599.0, -1646759.0625, -1757544.375, 0.5580000281333923, 0.796000063419342, 0.12600000202655792, 192.0, 0.0, 0.0, 0.0, 0.0, 0.0, 0.0, 0.0, 0.0, 0.0, 1.607711682015313E9, 2020-12-11 13:34:42.015
209.0, 350291.6953125, 327006.9140625, -1706522.8125, -1199383.125, -1795390.875, -1716668.625, -1647154.3125, -1753225.5, 0.5580000281333923, 0.796000063419342, 0.12600000202655792, 192.0, 0.0, 0.0, 0.0, 0.0, 0.0, 0.0, 0.0, 0.0, 0.0, 1.6077116820153148E9, 2020-12-11 13:34:42.015
210.0, 347232.9140625, 324671.765625, -1709173.5, -1201590.5625, -1797810.375, -1718686.6875, -1649499.1875, -1755750.0, 0.5580000281333923, 0.796000063419342, 0.12600000202655792, 192.0, 0.0, 0.0, 0.0, 0.0, 0.0, 0.0, 0.0, 0.0, 0.0, 1.6077116820153165E9, 2020-12-11 13:34:42.015
211.0, 346084.3828125, 326845.4296875, -1709693.25, -1200472.125, -1796623.6875, -1716723.9375, -1649327.4375, -1760397.75, 0.562000036239624, 0.7940000295639038, 0.1300000101327896, 192.0, 17.0, 144.0, 24.0, 208.0, 4.0, 16.0, 0.0, 0.0, 0.0, 1.6077116820153184E9, 2020-12-11 13:34:42.015
212.0, 348986.53125, 329477.765625, -1707079.125, -1198094.0625, -1794024.5625, -1714371.0, -1646994.9375, -1758461.8125, 0.562000036239624, 0.7940000295639038, 0.1300000101327896, 192.0, 0.0, 0.0, 0.0, 0.0, 0.0, 0.0, 0.0, 0.0, 0.0, 1.60771168201532E9, 2020-12-11 13:34:42.015
213.0, 350605.5234375, 327730.5703125, -1706023.5, -1198648.21875, -1794621.75, -1715749.6875, -1646579.25, -1753197.1875, 0.562000036239624, 0.7940000295639038, 0.1300000101327896, 192.0, 0.0, 0.0, 0.0, 0.0, 0.0, 0.0, 0.0, 0.0, 0.0, 1.607711682015322E9, 2020-12-11 13:34:42.015
214.0, 347920.078125, 324897.0703125, -1708505.0625, -1201163.0625, -1797295.875, -1718333.8125, -1648884.375, -1754545.6875, 0.562000036239624, 0.7940000295639038, 0.1300000101327896, 192.0, 0.0, 0.0, 0.0, 0.0, 0.0, 0.0, 0.0, 0.0, 0.0, 1.6077116820153239E9, 2020-12-11 13:34:42.015
215.0, 345816.703125, 326153.4140625, -1709973.75, -1200983.90625, -1797095.25, -1717274.25, -1649601.5625, -1760033.0625, 0.562000036239624, 0.7940000295639038, 0.1300000101327896, 192.0, 0.0, 0.0, 0.0, 0.0, 0.0, 0.0, 0.0, 0.0, 0.0, 1.6077116820153255E9, 2020-12-11 13:34:42.015
216.0, 348375.0, 329247.09375, -1707507.1875, -1198312.40625, -1794132.9375, -1714393.125, -1647079.3125, -1759384.875, 0.562000036239624, 0.7940000295639038, 0.1300000101327896, 192.0, 0.0, 0.0, 0.0, 0.0, 0.0, 0.0, 0.0, 0.0, 0.0, 1.6077116820153275E9, 2020-12-11 13:34:42.015
217.0, 350889.3046875, 328412.390625, -1705725.1875, -1198165.40625, -1793977.875, -1715074.875, -1646023.5, -1753658.4375, 0.562000036239624, 0.7940000295639038, 0.1300000101327896, 192.0, 0.0, 0.0, 0.0, 0.0, 0.0, 0.0, 0.0, 0.0, 0.0, 1.6077116820153291E9, 2020-12-11 13:34:42.015
218.0, 349048.21875, 325563.8671875, -1707598.5, -1200480.65625, -1796496.0, -1717726.5, -1647908.625, -1753403.625, 0.562000036239624, 0.7940000295639038, 0.1300000101327896, 192.0, 0.0, 0.0, 0.0, 0.0, 0.0, 0.0, 0.0, 0.0, 0.0, 1.6077116820153313E9, 2020-12-11 13:34:42.015
219.0, 346223.3203125, 325949.578125, -1709720.0625, -1201121.15625, -1797101.0625, -1717583.8125, -1649391.9375, -1759126.3125, 0.562000036239624, 0.7940000295639038, 0.1300000101327896, 192.0, 0.0, 0.0, 0.0, 0.0, 0.0, 0.0, 0.0, 0.0, 0.0, 1.6077116820153327E9, 2020-12-11 13:34:42.015
220.0, 347800.453125, 329100.09375, -1707923.0625, -1198638.0, -1794439.3125, -1714702.5, -1647515.4375, -1760265.1875, 0.562000036239624, 0.7940000295639038, 0.1300000101327896, 192.0, 0.0, 0.0, 0.0, 0.0, 0.0, 0.0, 0.0, 0.0, 0.0, 1.6077116820153348E9, 2020-12-11 13:34:42.015
221.0, 350842.6171875, 328959.5625, -1705622.8125, -1197874.125, -1793601.375, -1714667.25, -1645914.1875, -1754616.5625, 0.5600000023841858, 0.796000063419342, 0.1300000101327896, 192.0, 17.0, 128.0, 24.0, 224.0, 4.0, 16.0, 0.0, 0.0, 0.0, 1.6077116820153365E9, 2020-12-11 13:34:42.015
222.0, 349453.2421875, 325637.90625, -1707367.875, -1200416.8125, -1796396.8125, -1717698.0, -1647829.125, -1753227.1875, 0.5600000023841858, 0.796000063419342, 0.1300000101327896, 192.0, 0.0, 0.0, 0.0, 0.0, 0.0, 0.0, 0.0, 0.0, 0.0, 1.6077116820153384E9, 2020-12-11 13:34:42.015
223.0, 346248.0, 325254.3515625, -1709946.5625, -1201520.34375, -1797694.875, -1718185.125, -1649835.9375, -1758839.4375, 0.5600000023841858, 0.796000063419342, 0.1300000101327896, 192.0, 0.0, 0.0, 0.0, 0.0, 0.0, 0.0, 0.0, 0.0, 0.0, 1.60771168201534E9, 2020-12-11 13:34:42.015
224.0, 347387.9296875, 328698.3046875, -1708538.25, -1198988.34375, -1794964.5, -1715079.1875, -1648111.875, -1760911.125, 0.5600000023841858, 0.796000063419342, 0.1300000101327896, 192.0, 0.0, 0.0, 0.0, 0.0, 0.0, 0.0, 0.0, 0.0, 0.0, 1.607711682015342E9, 2020-12-11 13:34:42.015
225.0, 351006.234375, 329594.15625, -1705639.3125, -1197389.71875, -1793177.0625, -1714112.4375, -1645773.5625, -1755390.0, 0.5600000023841858, 0.796000063419342, 0.1300000101327896, 192.0, 0.0, 0.0, 0.0, 0.0, 0.0, 0.0, 0.0, 0.0, 0.0, 1.607711682015344E9, 2020-12-11 13:34:42.015
226.0, 350298.140625, 326366.9296875, -1706720.25, -1199627.71875, -1795581.375, -1717023.1875, -1647251.4375, -1752784.5, 0.5600000023841858, 0.796000063419342, 0.1300000101327896, 192.0, 0.0, 0.0, 0.0, 0.0, 0.0, 0.0, 0.0, 0.0, 0.0, 1.6077116820153456E9, 2020-12-11 13:34:42.015
227.0, 346754.9296875, 325091.2734375, -1709600.4375, -1201399.59375, -1797524.4375, -1718281.6875, -1649609.625, -1757698.875, 0.5600000023841858, 0.796000063419342, 0.1300000101327896, 192.0, 0.0, 0.0, 0.0, 0.0, 0.0, 0.0, 0.0, 0.0, 0.0, 1.6077116820153484E9, 2020-12-11 13:34:42.015
228.0, 346489.9453125, 327642.046875, -1709349.9375, -1199868.09375, -1795843.6875, -1716058.125, -1648839.9375, -1761371.4375, 0.5600000023841858, 0.796000063419342, 0.1300000101327896, 192.0, 0.0, 0.0, 0.0, 0.0, 0.0, 0.0, 0.0, 0.0, 0.0, 1.6077116820153503E9, 2020-12-11 13:34:42.015
229.0, 349780.4765625, 328967.0625, -1706632.875, -1198144.96875, -1793909.8125, -1714801.875, -1646616.375, -1757178.0, 0.5600000023841858, 0.796000063419342, 0.1300000101327896, 192.0, 0.0, 0.0, 0.0, 0.0, 0.0, 0.0, 0.0, 0.0, 0.0, 1.6077116820154116E9, 2020-12-11 13:34:42.015
230.0, 350538.46875, 326764.96875, -1706424.1875, -1199315.53125, -1795217.0625, -1716728.625, -1646932.875, -1752997.5, 0.5600000023841858, 0.796000063419342, 0.1300000101327896, 192.0, 0.0, 0.0, 0.0, 0.0, 0.0, 0.0, 0.0, 0.0, 0.0, 1.6077116820154135E9, 2020-12-11 13:34:42.015
231.0, 347007.609375, 324647.625, -1709400.375, -1201534.21875, -1797633.1875, -1718609.4375, -1649475.0, -1756677.0, 0.5600000023841858, 0.796000063419342, 0.1300000101327896, 192.0, 0.0, 0.0, 0.0, 0.0, 0.0, 0.0, 0.0, 0.0, 0.0, 1.6077116820154157E9, 2020-12-11 13:34:42.015
232.0, 346394.4375, 327234.3515625, -1709380.5, -1200003.75, -1795989.5625, -1716264.1875, -1648922.4375, -1761039.9375, 0.5580000281333923, 0.7900000214576721, 0.12800000607967377, 192.0, 17.0, 112.0, 24.0, 176.0, 4.0, 0.0, 0.0, 0.0, 0.0, 1.607711682015417E9, 2020-12-11 13:34:42.015
233.0, 349974.1171875, 329646.7265625, -1706266.5, -1197563.53125, -1793288.0625, -1714013.25, -1646269.3125, -1757663.0625, 0.5580000281333923, 0.7900000214576721, 0.12800000607967377, 192.0, 0.0, 0.0, 0.0, 0.0, 0.0, 0.0, 0.0, 0.0, 0.0, 1.6077116820154192E9, 2020-12-11 13:34:42.015
234.0, 350897.8828125, 327332.53125, -1705869.5625, -1198789.78125, -1794494.0625, -1716021.75, -1646409.1875, -1753039.3125, 0.5580000281333923, 0.7900000214576721, 0.12800000607967377, 192.0, 0.0, 0.0, 0.0, 0.0, 0.0, 0.0, 0.0, 0.0, 0.0, 1.607711682015421E9, 2020-12-11 13:34:42.015
235.0, 347913.65625, 324924.4453125, -1708486.3125, -1201108.3125, -1797015.75, -1718260.3125, -1648722.9375, -1755359.4375, 0.5580000281333923, 0.7900000214576721, 0.12800000607967377, 192.0, 0.0, 0.0, 0.0, 0.0, 0.0, 0.0, 0.0, 0.0, 0.0, 1.6077116820154228E9, 2020-12-11 13:34:42.015
236.0, 346422.890625, 326678.6015625, -1709445.375, -1200356.71875, -1796281.5, -1716697.125, -1648951.5, -1760529.1875, 0.5580000281333923, 0.7900000214576721, 0.12800000607967377, 192.0, 0.0, 0.0, 0.0, 0.0, 0.0, 0.0, 0.0, 0.0, 0.0, 1.6077116820154245E9, 2020-12-11 13:34:42.015
237.0, 349406.578125, 329551.78125, -1706755.125, -1197778.125, -1793521.5, -1714161.375, -1646518.125, -1758808.875, 0.5580000281333923, 0.7900000214576721, 0.12800000607967377, 192.0, 0.0, 0.0, 0.0, 0.0, 0.0, 0.0, 0.0, 0.0, 0.0, 1.6077116820154264E9, 2020-12-11 13:34:42.015
238.0, 351298.59375, 328054.5703125, -1705594.875, -1198261.40625, -1794044.4375, -1715544.75, -1646119.5, -1753603.6875, 0.5580000281333923, 0.7900000214576721, 0.12800000607967377, 192.0, 0.0, 0.0, 0.0, 0.0, 0.0, 0.0, 0.0, 0.0, 0.0, 1.6077116820154283E9, 2020-12-11 13:34:42.015
239.0, 348996.1875, 325364.3203125, -1707854.4375, -1200568.125, -1796617.3125, -1718026.875, -1648272.375, -1754533.875, 0.5580000281333923, 0.7900000214576721, 0.12800000607967377, 192.0, 0.0, 0.0, 0.0, 0.0, 0.0, 0.0, 0.0, 0.0, 0.0, 1.60771168201543E9, 2020-12-11 13:34:42.015
240.0, 346824.6796875, 326564.8828125, -1709316.75, -1200367.5, -1796492.8125, -1717061.8125, -1649121.9375, -1759952.0625, 0.5580000281333923, 0.7900000214576721, 0.12800000607967377, 192.0, 0.0, 0.0, 0.0, 0.0, 0.0, 0.0, 0.0, 0.0, 0.0, 1.607711682015432E9, 2020-12-11 13:34:42.015
241.0, 348937.171875, 329578.6171875, -1707232.6875, -1197853.6875, -1793784.75, -1714353.375, -1647002.0625, -1759935.375, 0.5580000281333923, 0.7900000214576721, 0.12800000607967377, 192.0, 0.0, 0.0, 0.0, 0.0, 0.0, 0.0, 0.0, 0.0, 0.0, 1.607711682495154E9, 2020-12-11 13:34:42.495
242.0, 351299.1328125, 328724.0625, -1705515.375, -1197745.40625, -1793623.3125, -1715042.625, -1645987.125, -1754318.25, 0.5540000200271606, 0.7920000553131104, 0.1340000033378601, 192.0, 17.0, 80.0, 24.0, 192.0, 4.0, 48.0, 0.0, 0.0, 0.0, 1.6077116824951768E9, 2020-12-11 13:34:42.495
243.0, 349289.625, 325490.9296875, -1707561.9375, -1200293.4375, -1796428.875, -1717978.6875, -1648143.5625, -1753927.6875, 0.5540000200271606, 0.7920000553131104, 0.1340000033378601, 192.0, 0.0, 0.0, 0.0, 0.0, 0.0, 0.0, 0.0, 0.0, 0.0, 1.6077116824952931E9, 2020-12-11 13:34:42.495
244.0, 346536.0703125, 325758.609375, -1709659.5, -1200769.78125, -1797026.0625, -1717670.25, -1649542.125, -1759375.875, 0.5540000200271606, 0.7920000553131104, 0.1340000033378601, 192.0, 0.0, 0.0, 0.0, 0.0, 0.0, 0.0, 0.0, 0.0, 0.0, 1.6077116824952953E9, 2020-12-11 13:34:42.495
245.0, 347964.609375, 329119.9453125, -1707943.875, -1198215.84375, -1794287.4375, -1714691.25, -1647612.5625, -1760609.625, 0.5540000200271606, 0.7920000553131104, 0.1340000033378601, 192.0, 0.0, 0.0, 0.0, 0.0, 0.0, 0.0, 0.0, 0.0, 0.0, 1.607711682495297E9, 2020-12-11 13:34:42.495
246.0, 350758.40625, 328898.390625, -1705755.75, -1197540.46875, -1793484.375, -1714728.9375, -1646041.6875, -1755178.6875, 0.5540000200271606, 0.7920000553131104, 0.1340000033378601, 192.0, 0.0, 0.0, 0.0, 0.0, 0.0, 0.0, 0.0, 0.0, 0.0, 1.607711682495299E9, 2020-12-11 13:34:42.495
247.0, 349630.8046875, 325692.09375, -1707181.6875, -1199881.96875, -1796011.125, -1717562.8125, -1647763.6875, -1753412.25, 0.5540000200271606, 0.7920000553131104, 0.1340000033378601, 192.0, 0.0, 0.0, 0.0, 0.0, 0.0, 0.0, 0.0, 0.0, 0.0, 1.6077116824953008E9, 2020-12-11 13:34:42.495
248.0, 346793.5546875, 325615.8984375, -1709375.625, -1200736.59375, -1796989.5, -1717781.8125, -1649355.9375, -1758454.3125, 0.5540000200271606, 0.7920000553131104, 0.1340000033378601, 192.0, 0.0, 0.0, 0.0, 0.0, 0.0, 0.0, 0.0, 0.0, 0.0, 1.607711682495303E9, 2020-12-11 13:34:42.495
249.0, 347382.5859375, 328601.7421875, -1708401.5625, -1198707.1875, -1794746.625, -1715158.5, -1647981.0, -1761106.875, 0.5540000200271606, 0.7920000553131104, 0.1340000033378601, 192.0, 0.0, 0.0, 0.0, 0.0, 0.0, 0.0, 0.0, 0.0, 0.0, 1.6077116824953046E9, 2020-12-11 13:34:42.495
250.0, 350459.6015625, 329159.109375, -1706068.5, -1197591.375, -1793505.375, -1714648.875, -1646168.8125, -1756206.0, 0.5540000200271606, 0.7920000553131104, 0.1340000033378601, 192.0, 0.0, 0.0, 0.0, 0.0, 0.0, 0.0, 0.0, 0.0, 0.0, 1.6077116824953065E9, 2020-12-11 13:34:42.495
251.0, 350177.9765625, 326271.984375, -1706824.3125, -1199506.5, -1795653.75, -1717308.0, -1647423.5625, -1753325.8125, 0.5540000200271606, 0.7920000553131104, 0.1340000033378601, 192.0, 0.0, 0.0, 0.0, 0.0, 0.0, 0.0, 0.0, 0.0, 0.0, 1.6077116824953125E9, 2020-12-11 13:34:42.495
252.0, 347270.4609375, 325380.9375, -1709168.0625, -1200707.625, -1797118.875, -1718099.25, -1649216.4375, -1757417.25, 0.5580000281333923, 0.7940000295639038, 0.13600000739097595, 192.0, 17.0, 112.0, 24.0, 208.0, 4.0, 64.0, 0.0, 0.0, 0.0, 1.6077116824953144E9, 2020-12-11 13:34:42.495
253.0, 347288.15625, 328249.3125, -1708694.4375, -1198859.53125, -1795138.875, -1715533.5, -1648192.875, -1760916.0, 0.5580000281333923, 0.7940000295639038, 0.13600000739097595, 192.0, 0.0, 0.0, 0.0, 0.0, 0.0, 0.0, 0.0, 0.0, 0.0, 1.6077116824953163E9, 2020-12-11 13:34:42.495
254.0, 350254.6875, 329489.015625, -1706218.125, -1197385.40625, -1793410.3125, -1714456.875, -1646141.0625, -1757216.625, 0.5580000281333923, 0.7940000295639038, 0.13600000739097595, 192.0, 0.0, 0.0, 0.0, 0.0, 0.0, 0.0, 0.0, 0.0, 0.0, 1.607711682495318E9, 2020-12-11 13:34:42.495
255.0, 350571.7265625, 326906.0625, -1706394.1875, -1199031.75, -1795143.5625, -1716848.25, -1646922.5625, -1753317.1875, 0.5580000281333923, 0.7940000295639038, 0.13600000739097595, 192.0, 0.0, 0.0, 0.0, 0.0, 0.0, 0.0, 0.0, 0.0, 0.0, 1.60771168249532E9, 2020-12-11 13:34:42.495
0.0, 347416.8984375, 325050.4921875, -1709148.1875, -1201129.21875, -1797443.4375, -1718650.3125, -1649302.875, -1756646.4375, 0.5580000281333923, 0.7940000295639038, 0.13600000739097595, 192.0, 0.0, 0.0, 0.0, 0.0, 0.0, 0.0, 0.0, 0.0, 0.0, 1.6077116824953215E9, 2020-12-11 13:34:42.495
1.0, 346519.96875, 327447.328125, -1709385.9375, -1199818.21875, -1796041.125, -1716492.75, -1648873.125, -1761017.4375, 0.5580000281333923, 0.7940000295639038, 0.13600000739097595, 192.0, 0.0, 0.0, 0.0, 0.0, 0.0, 0.0, 0.0, 0.0, 0.0, 1.6077116824953237E9, 2020-12-11 13:34:42.495
2.0, 349892.0390625, 330111.8203125, -1706340.5625, -1197246.46875, -1793194.6875, -1714092.1875, -1646167.3125, -1758027.1875, 0.5580000281333923, 0.7940000295639038, 0.13600000739097595, 192.0, 0.0, 0.0, 0.0, 0.0, 0.0, 0.0, 0.0, 0.0, 0.0, 1.607711682495325E9, 2020-12-11 13:34:42.495
3.0, 351353.859375, 328198.875, -1705535.8125, -1198030.78125, -1794011.8125, -1715772.1875, -1645936.125, -1752966.9375, 0.5580000281333923, 0.7940000295639038, 0.13600000739097595, 192.0, 0.0, 0.0, 0.0, 0.0, 0.0, 0.0, 0.0, 0.0, 0.0, 1.6077116824953272E9, 2020-12-11 13:34:42.495
4.0, 348074.0390625, 325151.34375, -1708553.25, -1200795.0, -1797052.875, -1718545.125, -1648727.8125, -1755304.6875, 0.5580000281333923, 0.7940000295639038, 0.13600000739097595, 192.0, 0.0, 0.0, 0.0, 0.0, 0.0, 0.0, 0.0, 0.0, 0.0, 1.607711682495329E9, 2020-12-11 13:34:42.495
5.0, 346146.609375, 326716.1484375, -1709710.5, -1200253.21875, -1796519.0625, -1717180.3125, -1649236.875, -1760685.75, 0.5580000281333923, 0.7940000295639038, 0.13600000739097595, 192.0, 0.0, 0.0, 0.0, 0.0, 0.0, 0.0, 0.0, 0.0, 0.0, 1.6077116824953308E9, 2020-12-11 13:34:42.495
6.0, 348933.421875, 329539.453125, -1707050.25, -1197615.5625, -1793633.0625, -1714485.375, -1646763.75, -1759224.0, 0.5560000538825989, 0.7920000553131104, 0.13600000739097595, 192.0, 17.0, 96.0, 24.0, 192.0, 4.0, 64.0, 0.0, 0.0, 0.0, 1.6077116824953327E9, 2020-12-11 13:34:42.495
7.0, 350841.0234375, 328077.6328125, -1705794.375, -1198029.1875, -1794012.75, -1715717.0625, -1646088.9375, -1753911.1875, 0.5560000538825989, 0.7920000553131104, 0.13600000739097595, 192.0, 0.0, 0.0, 0.0, 0.0, 0.0, 0.0, 0.0, 0.0, 0.0, 1.6077116824953344E9, 2020-12-11 13:34:42.495
8.0, 348854.0390625, 325600.359375, -1707657.5625, -1200003.28125, -1796309.8125, -1717898.625, -1647931.6875, -1754131.125, 0.5560000538825989, 0.7920000553131104, 0.13600000739097595, 192.0, 0.0, 0.0, 0.0, 0.0, 0.0, 0.0, 0.0, 0.0, 0.0, 1.6077116824953363E9, 2020-12-11 13:34:42.495
9.0, 346461.4921875, 326470.9921875, -1709270.0625, -1199941.03125, -1796331.9375, -1717056.5625, -1648934.25, -1759534.125, 0.5560000538825989, 0.7920000553131104, 0.13600000739097595, 192.0, 0.0, 0.0, 0.0, 0.0, 0.0, 0.0, 0.0, 0.0, 0.0, 1.607711682495338E9, 2020-12-11 13:34:42.495
10.0, 348067.078125, 329098.5, -1707576.9375, -1197853.6875, -1793991.375, -1714665.0, -1647195.1875, -1760026.5, 0.5560000538825989, 0.7920000553131104, 0.13600000739097595, 192.0, 0.0, 0.0, 0.0, 0.0, 0.0, 0.0, 0.0, 0.0, 0.0, 1.6077116824953399E9, 2020-12-11 13:34:42.495
11.0, 350737.4765625, 328564.734375, -1705625.4375, -1197549.5625, -1793559.5625, -1715072.25, -1645890.5625, -1754447.0625, 0.5560000538825989, 0.7920000553131104, 0.13600000739097595, 192.0, 0.0, 0.0, 0.0, 0.0, 0.0, 0.0, 0.0, 0.0, 0.0, 1.6077116824953425E9, 2020-12-11 13:34:42.495
12.0, 349477.3828125, 325840.6875, -1707133.875, -1199760.75, -1795919.25, -1717620.75, -1647572.25, -1753482.5625, 0.5560000538825989, 0.7920000553131104, 0.13600000739097595, 192.0, 0.0, 0.0, 0.0, 0.0, 0.0, 0.0, 0.0, 0.0, 0.0, 1.6077116824953444E9, 2020-12-11 13:34:42.495
13.0, 346502.8125, 325842.28125, -1709473.875, -1200620.71875, -1796836.6875, -1717767.75, -1649262.5625, -1759056.5625, 0.5560000538825989, 0.7920000553131104, 0.13600000739097595, 192.0, 0.0, 0.0, 0.0, 0.0, 0.0, 0.0, 0.0, 0.0, 0.0, 1.6077116824953463E9, 2020-12-11 13:34:42.495
14.0, 347611.640625, 328884.4453125, -1708133.25, -1198403.53125, -1794397.5, -1715070.0, -1647682.6875, -1760787.1875, 0.5560000538825989, 0.7920000553131104, 0.13600000739097595, 192.0, 0.0, 0.0, 0.0, 0.0, 0.0, 0.0, 0.0, 0.0, 0.0, 1.6077116824953482E9, 2020-12-11 13:34:42.495
15.0, 350843.6953125, 329285.71875, -1705577.625, -1197294.1875, -1793179.6875, -1714696.6875, -1645805.25, -1755230.8125, 0.5560000538825989, 0.7920000553131104, 0.13600000739097595, 192.0, 0.0, 0.0, 0.0, 0.0, 0.0, 0.0, 0.0, 0.0, 0.0, 1.60771168249535E9, 2020-12-11 13:34:42.495
16.0, 350027.2265625, 326437.1953125, -1706664.0, -1199336.4375, -1795457.4375, -1717310.8125, -1647237.5625, -1753153.6875, 0.5480000376701355, 0.7940000295639038, 0.12800000607967377, 192.0, 17.0, 32.0, 24.0, 208.0, 4.0, 0.0, 0.0, 0.0, 0.0, 1.6077116824953525E9, 2020-12-11 13:34:42.495
17.0, 346753.3359375, 325571.390625, -1709223.9375, -1200667.40625, -1796855.4375, -1717951.3125, -1649152.6875, -1757965.5, 0.5480000376701355, 0.7940000295639038, 0.12800000607967377, 192.0, 0.0, 0.0, 0.0, 0.0, 0.0, 0.0, 0.0, 0.0, 0.0, 1.6077116824953542E9, 2020-12-11 13:34:42.495
18.0, 346788.7265625, 327995.5546875, -1708832.25, -1199187.28125, -1795081.875, -1715772.1875, -1648272.375, -1761234.5625, 0.5480000376701355, 0.7940000295639038, 0.12800000607967377, 192.0, 0.0, 0.0, 0.0, 0.0, 0.0, 0.0, 0.0, 0.0, 0.0, 1.607711682495357E9, 2020-12-11 13:34:42.495
19.0, 350226.796875, 329054.5078125, -1706019.75, -1197567.28125, -1793253.1875, -1714725.1875, -1645954.3125, -1756394.8125, 0.5480000376701355, 0.7940000295639038, 0.12800000607967377, 192.0, 0.0, 0.0, 0.0, 0.0, 0.0, 0.0, 0.0, 0.0, 0.0, 1.6077116824953587E9, 2020-12-11 13:34:42.495
20.0, 350051.3671875, 326045.6015625, -1706718.1875, -1199530.6875, -1795454.25, -1717465.875, -1647206.4375, -1753481.4375, 0.5480000376701355, 0.7940000295639038, 0.12800000607967377, 192.0, 0.0, 0.0, 0.0, 0.0, 0.0, 0.0, 0.0, 0.0, 0.0, 1.6077116824953609E9, 2020-12-11 13:34:42.495
21.0, 346721.671875, 324670.171875, -1709512.5, -1201305.1875, -1797473.4375, -1718817.0, -1649487.375, -1757736.9375, 0.5480000376701355, 0.7940000295639038, 0.12800000607967377, 192.0, 0.0, 0.0, 0.0, 0.0, 0.0, 0.0, 0.0, 0.0, 0.0, 1.6077116824953625E9, 2020-12-11 13:34:42.495
22.0, 346264.1015625, 327357.2109375, -1709443.875, -1199722.125, -1795780.875, -1716456.75, -1648851.1875, -1761682.5, 0.5480000376701355, 0.7940000295639038, 0.12800000607967377, 192.0, 0.0, 0.0, 0.0, 0.0, 0.0, 0.0, 0.0, 0.0, 0.0, 1.6077116824953644E9, 2020-12-11 13:34:42.495
23.0, 350127.0, 329688.046875, -1706072.25, -1197168.65625, -1792977.9375, -1714207.5, -1645936.6875, -1757429.0625, 0.5480000376701355, 0.7940000295639038, 0.12800000607967377, 192.0, 0.0, 0.0, 0.0, 0.0, 0.0, 0.0, 0.0, 0.0, 0.0, 1.607711682495366E9, 2020-12-11 13:34:42.495
24.0, 350994.984375, 327303.0234375, -1705789.125, -1198458.84375, -1794283.6875, -1716233.0625, -1646091.75, -1752870.375, 0.5480000376701355, 0.7940000295639038, 0.12800000607967377, 192.0, 0.0, 0.0, 0.0, 0.0, 0.0, 0.0, 0.0, 0.0, 0.0, 1.607711682495368E9, 2020-12-11 13:34:42.495
25.0, 347988.2109375, 325413.6796875, -1708420.3125, -1200493.03125, -1796511.0, -1718029.5, -1648416.0, -1756016.0625, 0.5480000376701355, 0.7940000295639038, 0.12800000607967377, 192.0, 0.0, 0.0, 0.0, 0.0, 0.0, 0.0, 0.0, 0.0, 0.0, 1.60771168249537E9, 2020-12-11 13:34:42.495
26.0, 346561.828125, 327282.09375, -1709149.875, -1199645.4375, -1795555.125, -1716380.0625, -1648552.3125, -1760890.125, 0.5460000038146973, 0.7940000295639038, 0.13199999928474426, 192.0, 17.0, 16.0, 24.0, 208.0, 4.0, 32.0, 0.0, 0.0, 0.0, 1.6077116824953716E9, 2020-12-11 13:34:42.495
27.0, 349610.953125, 329733.09375, -1706630.25, -1197436.875, -1793152.875, -1714269.1875, -1646297.625, -1758580.3125, 0.5460000038146973, 0.7940000295639038, 0.13199999928474426, 192.0, 0.0, 0.0, 0.0, 0.0, 0.0, 0.0, 0.0, 0.0, 0.0, 1.6077116824953735E9, 2020-12-11 13:34:42.495
28.0, 350905.921875, 327662.9765625, -1705989.1875, -1198419.09375, -1794221.4375, -1716096.75, -1646311.6875, -1753724.4375, 0.5460000038146973, 0.7940000295639038, 0.13199999928474426, 192.0, 0.0, 0.0, 0.0, 0.0, 0.0, 0.0, 0.0, 0.0, 0.0, 1.6077116824953752E9, 2020-12-11 13:34:42.495
29.0, 348106.78125, 325000.6171875, -1708571.0625, -1200903.9375, -1796914.875, -1718571.375, -1648774.875, -1755566.0625, 0.5460000038146973, 0.7940000295639038, 0.13199999928474426, 192.0, 0.0, 0.0, 0.0, 0.0, 0.0, 0.0, 0.0, 0.0, 0.0, 1.6077116824953773E9, 2020-12-11 13:34:42.495
30.0, 346538.2265625, 326780.53125, -1709454.0, -1200183.46875, -1796135.4375, -1716992.0625, -1649056.5, -1760697.5625, 0.5460000038146973, 0.7940000295639038, 0.13199999928474426, 192.0, 0.0, 0.0, 0.0, 0.0, 0.0, 0.0, 0.0, 0.0, 0.0, 1.6077116824953794E9, 2020-12-11 13:34:42.495
31.0, 349056.28125, 329545.875, -1706997.5625, -1197630.0, -1793303.0625, -1714301.25, -1646730.0, -1759699.3125, 0.5460000038146973, 0.7940000295639038, 0.13199999928474426, 192.0, 0.0, 0.0, 0.0, 0.0, 0.0, 0.0, 0.0, 0.0, 0.0, 1.607711682495381E9, 2020-12-11 13:34:42.495
32.0, 351109.78125, 328216.0546875, -1705589.4375, -1197959.4375, -1793550.375, -1715432.625, -1645968.1875, -1754259.1875, 0.5460000038146973, 0.7940000295639038, 0.13199999928474426, 192.0, 0.0, 0.0, 0.0, 0.0, 0.0, 0.0, 0.0, 0.0, 0.0, 1.6077116824953833E9, 2020-12-11 13:34:42.495
33.0, 349071.3046875, 325427.625, -1707632.8125, -1200306.84375, -1796155.875, -1718011.3125, -1648062.5625, -1754538.75, 0.5460000038146973, 0.7940000295639038, 0.13199999928474426, 192.0, 0.0, 0.0, 0.0, 0.0, 0.0, 0.0, 0.0, 0.0, 0.0, 1.6077116824953861E9, 2020-12-11 13:34:42.495
34.0, 346556.4609375, 326140.0078125, -1709455.125, -1200476.90625, -1796420.4375, -1717360.6875, -1649179.875, -1760028.1875, 0.5460000038146973, 0.7940000295639038, 0.13199999928474426, 192.0, 0.0, 0.0, 0.0, 0.0, 0.0, 0.0, 0.0, 0.0, 0.0, 1.607711682495388E9, 2020-12-11 13:34:42.495
35.0, 348410.390625, 329119.40625, -1707692.4375, -1198115.53125, -1793870.625, -1714629.5625, -1647234.1875, -1760656.3125, 0.5460000038146973, 0.7940000295639038, 0.13199999928474426, 192.0, 0.0, 0.0, 0.0, 0.0, 0.0, 0.0, 0.0, 0.0, 0.0, 1.60771168249539E9, 2020-12-11 13:34:42.495
36.0, 350966.53125, 328584.5859375, -1705738.125, -1197711.5625, -1793438.25, -1715018.625, -1645945.6875, -1755176.625, 0.5460000038146973, 0.7940000295639038, 0.13199999928474426, 192.0, 0.0, 0.0, 0.0, 0.0, 0.0, 0.0, 0.0, 0.0, 0.0, 1.6077116824953918E9, 2020-12-11 13:34:42.495
37.0, 349716.09375, 325897.546875, -1707182.8125, -1199826.1875, -1795805.625, -1717570.875, -1647590.4375, -1753932.0, 0.5480000376701355, 0.796000063419342, 0.14000000059604645, 192.0, 17.0, 32.0, 24.0, 224.0, 4.0, 96.0, 0.0, 0.0, 0.0, 1.6077116824953935E9, 2020-12-11 13:34:42.495
38.0, 346757.625, 325859.4609375, -1709532.9375, -1200647.53125, -1796786.25, -1717722.1875, -1649389.125, -1759419.75, 0.5480000376701355, 0.796000063419342, 0.14000000059604645, 192.0, 0.0, 0.0, 0.0, 0.0, 0.0, 0.0, 0.0, 0.0, 0.0, 1.6077116824953954E9, 2020-12-11 13:34:42.495
39.0, 347617.546875, 328676.3203125, -1708408.5, -1198504.40625, -1794463.5, -1714973.4375, -1647883.3125, -1761260.4375, 0.5480000376701355, 0.796000063419342, 0.14000000059604645, 192.0, 0.0, 0.0, 0.0, 0.0, 0.0, 0.0, 0.0, 0.0, 0.0, 1.607711682495397E9, 2020-12-11 13:34:42.495
40.0, 350718.1640625, 328923.609375, -1705905.0, -1197418.125, -1793220.5625, -1714490.0625, -1646031.0, -1755818.0625, 0.5480000376701355, 0.796000063419342, 0.14000000059604645, 192.0, 0.0, 0.0, 0.0, 0.0, 0.0, 0.0, 0.0, 0.0, 0.0, 1.6077116824953992E9, 2020-12-11 13:34:42.495
41.0, 349889.90625, 325807.4296875, -1706963.25, -1199568.1875, -1795484.8125, -1717233.5625, -1647356.0625, -1753467.9375, 0.5480000376701355, 0.796000063419342, 0.14000000059604645, 192.0, 0.0, 0.0, 0.0, 0.0, 0.0, 0.0, 0.0, 0.0, 0.0, 1.607711682495402E9, 2020-12-11 13:34:42.495
42.0, 346978.1015625, 325333.734375, -1709271.1875, -1200619.125, -1796663.4375, -1717711.5, -1649071.5, -1758190.3125, 0.5480000376701355, 0.796000063419342, 0.14000000059604645, 192.0, 0.0, 0.0, 0.0, 0.0, 0.0, 0.0, 0.0, 0.0, 0.0, 1.6077116824954038E9, 2020-12-11 13:34:42.495
43.0, 347579.9765625, 328603.359375, -1708258.875, -1198403.53125, -1794258.0, -1714804.5, -1647655.875, -1761015.75, 0.5480000376701355, 0.796000063419342, 0.14000000059604645, 192.0, 0.0, 0.0, 0.0, 0.0, 0.0, 0.0, 0.0, 0.0, 0.0, 1.6077116824954057E9, 2020-12-11 13:34:42.495
44.0, 350859.2578125, 329651.015625, -1705644.1875, -1196862.9375, -1792568.25, -1713763.875, -1645458.1875, -1756536.375, 0.5480000376701355, 0.796000063419342, 0.14000000059604645, 192.0, 0.0, 0.0, 0.0, 0.0, 0.0, 0.0, 0.0, 0.0, 0.0, 1.6077116824954073E9, 2020-12-11 13:34:42.495
45.0, 350523.984375, 326415.75, -1706460.1875, -1199023.125, -1794884.0625, -1716623.0625, -1646631.375, -1753314.5625, 0.5480000376701355, 0.796000063419342, 0.14000000059604645, 192.0, 0.0, 0.0, 0.0, 0.0, 0.0, 0.0, 0.0, 0.0, 0.0, 1.6077116824954093E9, 2020-12-11 13:34:42.495
46.0, 347514.5390625, 325063.921875, -1709097.75, -1200657.75, -1796748.1875, -1717849.875, -1648701.0, -1757172.1875, 0.5480000376701355, 0.796000063419342, 0.14000000059604645, 192.0, 0.0, 0.0, 0.0, 0.0, 0.0, 0.0, 0.0, 0.0, 0.0, 1.6077116824954112E9, 2020-12-11 13:34:42.495
47.0, 346605.796875, 327338.4140625, -1709338.125, -1199358.46875, -1795361.4375, -1715759.8125, -1648363.5, -1761368.25, 0.550000011920929, 0.796000063419342, 0.1380000114440918, 192.0, 17.0, 48.0, 24.0, 224.0, 4.0, 80.0, 0.0, 0.0, 0.0, 1.6077116824954128E9, 2020-12-11 13:34:42.495
48.0, 349834.640625, 329366.1796875, -1706632.875, -1197297.46875, -1793137.875, -1714026.1875, -1646013.375, -1757966.0625, 0.550000011920929, 0.796000063419342, 0.1380000114440918, 192.0, 0.0, 0.0, 0.0, 0.0, 0.0, 0.0, 0.0, 0.0, 0.0, 1.6077116824954147E9, 2020-12-11 13:34:42.495
