%OpenBCI Raw EEG Data
%Number of channels = 8
%Sample Rate = 250 Hz
%Board = OpenBCI_GUI$BoardCytonSerial
Sample Index, EXG Channel 0, EXG Channel 1, EXG Channel 2, EXG Channel 3, EXG Channel 4, EXG Channel 5, EXG Channel 6, EXG Channel 7, Accel Channel 0, Accel Channel 1, Accel Channel 2, Other, Other, Other, Other, Other, Other, Other, Analog Channel 0, Analog Channel 1, Analog Channel 2, Timestamp, Timestamp (Formatted)
0.0, 0.0, 0.0, 0.0, 0.0, 0.0, 0.0, 0.0, 0.0, 0.09400000423192978, 0.9520000219345093, 0.10600000619888306, 192.0, 2.0, 240.0, 29.0, 192.0, 3.0, 80.0, 0.0, 0.0, 0.0, 1.6052576736778808E9, 2020-11-13 03:54:33.677
1.0, 1069035.28125, 1197219.09375, -831536.34375, 60383.501953125, -946359.5625, -527334.140625, 393251.578125, 255575.90625, 0.09400000423192978, 0.9520000219345093, 0.10600000619888306, 192.0, 0.0, 0.0, 0.0, 0.0, 0.0, 0.0, 0.0, 0.0, 0.0, 1.6052576741658645E9, 2020-11-13 03:54:34.165
2.0, 1079917.5, 1195973.53125, -749300.34375, 79898.71875, -879972.1875, -521180.625, 413168.578125, 258072.515625, 0.09400000423192978, 0.9520000219345093, 0.10600000619888306, 192.0, 0.0, 0.0, 0.0, 0.0, 0.0, 0.0, 0.0, 0.0, 0.0, 1.605257674166044E9, 2020-11-13 03:54:34.166
3.0, 1079455.6875, 1192098.75, -694142.34375, 81816.50390625, -847582.40625, -523573.125, 417494.4375, 254618.3671875, 0.09400000423192978, 0.9520000219345093, 0.10600000619888306, 192.0, 0.0, 0.0, 0.0, 0.0, 0.0, 0.0, 0.0, 0.0, 0.0, 1.605257674166046E9, 2020-11-13 03:54:34.166
4.0, 1068487.03125, 1192881.9375, -768350.484375, 62326.494140625, -909253.40625, -530188.546875, 398135.859375, 251579.4140625, 0.09400000423192978, 0.9520000219345093, 0.10600000619888306, 192.0, 0.0, 0.0, 0.0, 0.0, 0.0, 0.0, 0.0, 0.0, 0.0, 1.605257674166048E9, 2020-11-13 03:54:34.166
5.0, 1067332.03125, 1196828.0625, -833941.21875, 57483.498046875, -950325.0, -528928.96875, 391003.3359375, 254472.4453125, 0.09400000423192978, 0.9520000219345093, 0.10600000619888306, 192.0, 0.0, 0.0, 0.0, 0.0, 0.0, 0.0, 0.0, 0.0, 0.0, 1.6052576741660497E9, 2020-11-13 03:54:34.166
6.0, 1078727.71875, 1196641.40625, -766152.703125, 76806.134765625, -892282.5, -522041.625, 409957.453125, 257873.5078125, 0.09400000423192978, 0.9520000219345093, 0.10600000619888306, 192.0, 0.0, 0.0, 0.0, 0.0, 0.0, 0.0, 0.0, 0.0, 0.0, 1.6052576741660516E9, 2020-11-13 03:54:34.166
7.0, 1080970.03125, 1192740.375, -694215.84375, 83692.435546875, -845682.375, -522515.296875, 418966.96875, 255482.578125, 0.09400000423192978, 0.9520000219345093, 0.10600000619888306, 192.0, 0.0, 0.0, 0.0, 0.0, 0.0, 0.0, 0.0, 0.0, 0.0, 1.6052576741660535E9, 2020-11-13 03:54:34.166
8.0, 1069936.5, 1192242.0, -751132.3125, 65379.38671875, -896631.9375, -529608.09375, 401326.078125, 251625.0234375, 0.09400000423192978, 0.9380000233650208, 0.15400001406669617, 192.0, 2.0, 240.0, 29.0, 80.0, 4.0, 208.0, 0.0, 0.0, 0.0, 1.6052576741660554E9, 2020-11-13 03:54:34.166
9.0, 1065999.0, 1196060.4375, -831307.3125, 55959.46875, -950624.34375, -530123.625, 389794.734375, 253527.234375, 0.09400000423192978, 0.9380000233650208, 0.15400001406669617, 192.0, 0.0, 0.0, 0.0, 0.0, 0.0, 0.0, 0.0, 0.0, 0.0, 1.605257674166057E9, 2020-11-13 03:54:34.166
10.0, 1076476.78125, 1196848.96875, -783177.1875, 73515.59765625, -905299.21875, -523023.28125, 406374.0, 257781.234375, 0.09400000423192978, 0.9380000233650208, 0.15400001406669617, 192.0, 0.0, 0.0, 0.0, 0.0, 0.0, 0.0, 0.0, 0.0, 0.0, 1.6052576741660593E9, 2020-11-13 03:54:34.166
11.0, 1081536.46875, 1193246.71875, -698815.828125, 84468.134765625, -847349.0625, -521927.859375, 419291.015625, 256301.1796875, 0.09400000423192978, 0.9380000233650208, 0.15400001406669617, 192.0, 0.0, 0.0, 0.0, 0.0, 0.0, 0.0, 0.0, 0.0, 0.0, 1.6052576741660607E9, 2020-11-13 03:54:34.166
12.0, 1071716.4375, 1191809.0625, -734206.5, 68437.107421875, -883732.6875, -529116.1875, 404658.46875, 251781.1171875, 0.09400000423192978, 0.9380000233650208, 0.15400001406669617, 192.0, 0.0, 0.0, 0.0, 0.0, 0.0, 0.0, 0.0, 0.0, 0.0, 1.6052576741660628E9, 2020-11-13 03:54:34.166
13.0, 1065274.78125, 1195215.46875, -823693.03125, 55107.59765625, -946989.375, -531397.171875, 389625.75, 252628.171875, 0.09400000423192978, 0.9380000233650208, 0.15400001406669617, 192.0, 0.0, 0.0, 0.0, 0.0, 0.0, 0.0, 0.0, 0.0, 0.0, 1.6052576741660645E9, 2020-11-13 03:54:34.166
14.0, 1074648.09375, 1197273.28125, -799610.53125, 69746.560546875, -918480.75, -524409.984375, 402603.890625, 257508.1875, 0.09400000423192978, 0.9380000233650208, 0.15400001406669617, 192.0, 0.0, 0.0, 0.0, 0.0, 0.0, 0.0, 0.0, 0.0, 0.0, 1.6052576741660664E9, 2020-11-13 03:54:34.166
15.0, 1081690.96875, 1193963.4375, -707895.65625, 84250.875, -852576.1875, -521857.59375, 418737.9375, 256989.4453125, 0.09400000423192978, 0.9380000233650208, 0.15400001406669617, 192.0, 0.0, 0.0, 0.0, 0.0, 0.0, 0.0, 0.0, 0.0, 0.0, 1.6052576741660683E9, 2020-11-13 03:54:34.166
16.0, 1073710.3125, 1191640.125, -718910.390625, 71967.966796875, -871574.25, -528307.78125, 408335.25, 252431.8359375, 0.09400000423192978, 0.9380000233650208, 0.15400001406669617, 192.0, 0.0, 0.0, 0.0, 0.0, 0.0, 0.0, 0.0, 0.0, 0.0, 1.60525767416607E9, 2020-11-13 03:54:34.166
17.0, 1065590.25, 1194539.625, -812015.25, 55687.494140625, -939990.375, -531929.8125, 390850.9921875, 252337.9453125, 0.09400000423192978, 0.9380000233650208, 0.15400001406669617, 192.0, 0.0, 0.0, 0.0, 0.0, 0.0, 0.0, 0.0, 0.0, 0.0, 1.605257674166072E9, 2020-11-13 03:54:34.166
18.0, 1072666.96875, 1197366.65625, -813354.1875, 65784.3984375, -930128.4375, -525953.34375, 399014.015625, 257070.4453125, 0.10000000149011612, 0.9380000233650208, 0.17600001394748688, 192.0, 3.0, 32.0, 29.0, 80.0, 5.0, 128.0, 0.0, 0.0, 0.0, 1.6052576741660738E9, 2020-11-13 03:54:34.166
19.0, 1081578.375, 1194818.53125, -720403.3125, 82976.291015625, -860568.09375, -521741.71875, 417444.046875, 257848.2890625, 0.10000000149011612, 0.9380000233650208, 0.17600001394748688, 192.0, 0.0, 0.0, 0.0, 0.0, 0.0, 0.0, 0.0, 0.0, 0.0, 1.6052576741660757E9, 2020-11-13 03:54:34.166
20.0, 1076008.96875, 1191707.15625, -706132.359375, 75503.654296875, -860448.9375, -527124.375, 412108.03125, 253325.5546875, 0.10000000149011612, 0.9380000233650208, 0.17600001394748688, 192.0, 0.0, 0.0, 0.0, 0.0, 0.0, 0.0, 0.0, 0.0, 0.0, 1.6052576741660776E9, 2020-11-13 03:54:34.166
21.0, 1066277.90625, 1193899.59375, -797582.25, 57111.2109375, -930314.625, -532204.5, 392821.875, 251969.953125, 0.10000000149011612, 0.9380000233650208, 0.17600001394748688, 192.0, 0.0, 0.0, 0.0, 0.0, 0.0, 0.0, 0.0, 0.0, 0.0, 1.6052576741660793E9, 2020-11-13 03:54:34.166
22.0, 1070466.46875, 1197329.625, -824500.40625, 61861.400390625, -940166.34375, -527730.5625, 395367.28125, 256234.6640625, 0.10000000149011612, 0.9380000233650208, 0.17600001394748688, 192.0, 0.0, 0.0, 0.0, 0.0, 0.0, 0.0, 0.0, 0.0, 0.0, 1.6052576741660812E9, 2020-11-13 03:54:34.166
23.0, 1080602.0625, 1195328.15625, -735331.96875, 80699.630859375, -870785.15625, -522444.46875, 414927.046875, 257806.453125, 0.10000000149011612, 0.9380000233650208, 0.17600001394748688, 192.0, 0.0, 0.0, 0.0, 0.0, 0.0, 0.0, 0.0, 0.0, 0.0, 1.605257674166093E9, 2020-11-13 03:54:34.166
24.0, 1077838.3125, 1191555.9375, -697219.921875, 78491.09765625, -852108.375, -526300.40625, 414876.609375, 253724.109375, 0.10000000149011612, 0.9380000233650208, 0.17600001394748688, 192.0, 0.0, 0.0, 0.0, 0.0, 0.0, 0.0, 0.0, 0.0, 0.0, 1.6052576741660948E9, 2020-11-13 03:54:34.166
25.0, 1067220.46875, 1192997.8125, -781653.703125, 58968.908203125, -919331.53125, -532331.625, 395072.8125, 251465.6953125, 0.10000000149011612, 0.9380000233650208, 0.17600001394748688, 192.0, 0.0, 0.0, 0.0, 0.0, 0.0, 0.0, 0.0, 0.0, 0.0, 1.6052576741660967E9, 2020-11-13 03:54:34.166
26.0, 1068451.03125, 1196876.90625, -831698.90625, 58414.763671875, -947491.5, -529466.484375, 392171.71875, 255158.0390625, 0.10000000149011612, 0.9380000233650208, 0.17600001394748688, 192.0, 0.0, 0.0, 0.0, 0.0, 0.0, 0.0, 0.0, 0.0, 0.0, 1.6052576741660988E9, 2020-11-13 03:54:34.166
27.0, 1079404.6875, 1195975.125, -751796.953125, 78307.1015625, -882309.0, -522995.390625, 412024.359375, 257956.640625, 0.10000000149011612, 0.9380000233650208, 0.17600001394748688, 192.0, 0.0, 0.0, 0.0, 0.0, 0.0, 0.0, 0.0, 0.0, 0.0, 1.6052576741661005E9, 2020-11-13 03:54:34.166
28.0, 1079692.78125, 1192141.125, -693401.53125, 81333.169921875, -847086.75, -524941.59375, 417221.953125, 254795.390625, 0.10400000214576721, 0.9340000152587891, 0.18400001525878906, 192.0, 3.0, 64.0, 29.0, 48.0, 5.0, 192.0, 0.0, 0.0, 0.0, 1.6052576741661024E9, 2020-11-13 03:54:34.166
29.0, 1068517.03125, 1192450.125, -764866.828125, 61722.99609375, -907180.59375, -531883.6875, 398032.359375, 251468.390625, 0.10400000214576721, 0.9340000152587891, 0.18400001525878906, 192.0, 0.0, 0.0, 0.0, 0.0, 0.0, 0.0, 0.0, 0.0, 0.0, 1.605257674166104E9, 2020-11-13 03:54:34.166
30.0, 1066826.71875, 1196444.53125, -833442.375, 56019.55078125, -950947.21875, -530802.75, 390215.3203125, 254269.1484375, 0.10400000214576721, 0.9340000152587891, 0.18400001525878906, 192.0, 0.0, 0.0, 0.0, 0.0, 0.0, 0.0, 0.0, 0.0, 0.0, 1.605257674166106E9, 2020-11-13 03:54:34.166
31.0, 1077910.6875, 1196469.75, -768931.453125, 75286.39453125, -894893.90625, -523736.765625, 408829.3125, 257879.390625, 0.10400000214576721, 0.9340000152587891, 0.18400001525878906, 192.0, 0.0, 0.0, 0.0, 0.0, 0.0, 0.0, 0.0, 0.0, 0.0, 1.605257674166108E9, 2020-11-13 03:54:34.166
32.0, 1080989.90625, 1192791.28125, -694192.21875, 83186.572265625, -845654.4375, -523817.203125, 418688.015625, 255753.46875, 0.10400000214576721, 0.9340000152587891, 0.18400001525878906, 192.0, 0.0, 0.0, 0.0, 0.0, 0.0, 0.0, 0.0, 0.0, 0.0, 1.6052576741661096E9, 2020-11-13 03:54:34.166
33.0, 1070280.84375, 1192084.875, -747640.078125, 64999.048828125, -894341.90625, -531074.203125, 401444.109375, 251724.2578125, 0.10400000214576721, 0.9340000152587891, 0.18400001525878906, 192.0, 0.0, 0.0, 0.0, 0.0, 0.0, 0.0, 0.0, 0.0, 0.0, 1.6052576741661117E9, 2020-11-13 03:54:34.166
34.0, 1065924.9375, 1195813.125, -829654.03125, 54755.689453125, -950139.9375, -531835.96875, 389412.2578125, 253493.4609375, 0.10400000214576721, 0.9340000152587891, 0.18400001525878906, 192.0, 0.0, 0.0, 0.0, 0.0, 0.0, 0.0, 0.0, 0.0, 0.0, 1.6052576741661131E9, 2020-11-13 03:54:34.166
35.0, 1076525.625, 1197055.5, -785389.5, 72102.615234375, -907455.1875, -524494.734375, 405591.890625, 257909.4375, 0.10400000214576721, 0.9340000152587891, 0.18400001525878906, 192.0, 0.0, 0.0, 0.0, 0.0, 0.0, 0.0, 0.0, 0.0, 0.0, 1.6052576741661153E9, 2020-11-13 03:54:34.166
36.0, 1081727.4375, 1193515.5, -699872.0625, 83603.390625, -848115.09375, -523279.171875, 418898.859375, 256356.984375, 0.10400000214576721, 0.9340000152587891, 0.18400001525878906, 192.0, 0.0, 0.0, 0.0, 0.0, 0.0, 0.0, 0.0, 0.0, 0.0, 1.6052576741661177E9, 2020-11-13 03:54:34.166
37.0, 1072030.21875, 1191833.25, -731225.484375, 68042.28515625, -881608.40625, -530411.15625, 404955.140625, 251765.578125, 0.10400000214576721, 0.9340000152587891, 0.18400001525878906, 192.0, 0.0, 0.0, 0.0, 0.0, 0.0, 0.0, 0.0, 0.0, 0.0, 1.6052576741661196E9, 2020-11-13 03:54:34.166
38.0, 1065276.9375, 1194839.4375, -821585.90625, 53889.873046875, -946158.9375, -533124.46875, 389328.046875, 252213.4921875, 0.10000000149011612, 0.9360000491142273, 0.19200000166893005, 192.0, 3.0, 32.0, 29.0, 64.0, 6.0, 0.0, 0.0, 0.0, 0.0, 1.6052576741661215E9, 2020-11-13 03:54:34.166
39.0, 1074203.34375, 1197007.78125, -801537.46875, 67820.197265625, -920573.90625, -526241.953125, 401616.328125, 257053.8046875, 0.10000000149011612, 0.9360000491142273, 0.19200000166893005, 192.0, 0.0, 0.0, 0.0, 0.0, 0.0, 0.0, 0.0, 0.0, 0.0, 1.6052576741661232E9, 2020-11-13 03:54:34.166
40.0, 1081833.65625, 1193949.46875, -709771.03125, 82963.951171875, -854115.75, -523197.65625, 418123.171875, 256800.609375, 0.10000000149011612, 0.9360000491142273, 0.19200000166893005, 192.0, 0.0, 0.0, 0.0, 0.0, 0.0, 0.0, 0.0, 0.0, 0.0, 1.6052576741661253E9, 2020-11-13 03:54:34.166
41.0, 1074415.21875, 1191369.1875, -716482.453125, 71499.650390625, -869728.3125, -529553.390625, 408520.875, 252066.515625, 0.10000000149011612, 0.9360000491142273, 0.19200000166893005, 192.0, 0.0, 0.0, 0.0, 0.0, 0.0, 0.0, 0.0, 0.0, 0.0, 1.6052576741661267E9, 2020-11-13 03:54:34.166
42.0, 1065870.28125, 1194256.875, -809434.96875, 54933.791015625, -938589.75, -533355.140625, 390724.921875, 251850.328125, 0.10000000149011612, 0.9360000491142273, 0.19200000166893005, 192.0, 0.0, 0.0, 0.0, 0.0, 0.0, 0.0, 0.0, 0.0, 0.0, 1.6052576741661289E9, 2020-11-13 03:54:34.166
43.0, 1072345.125, 1197378.46875, -815019.28125, 64294.166015625, -932036.625, -527508.46875, 398031.28125, 256638.609375, 0.10000000149011612, 0.9360000491142273, 0.19200000166893005, 192.0, 0.0, 0.0, 0.0, 0.0, 0.0, 0.0, 0.0, 0.0, 0.0, 1.6052576741661305E9, 2020-11-13 03:54:34.166
44.0, 1081506.46875, 1194911.34375, -722657.4375, 81940.95703125, -862523.90625, -523136.484375, 416505.796875, 257408.390625, 0.10000000149011612, 0.9360000491142273, 0.19200000166893005, 192.0, 0.0, 0.0, 0.0, 0.0, 0.0, 0.0, 0.0, 0.0, 0.0, 1.6052576741661325E9, 2020-11-13 03:54:34.166